# Mains_Frequency_(Hz) =,60,,,,,,,,,,,,,,,,,,,,,,,,,,,
# Sample_Frequency_(Hz) =,300,,,,,,,,,,,,,,,,,,,,,,,,,,,
# Filter_Delay_(ms) =,43.3,,,,,,,,,,,,,,,,,,,,,,,,,,,
# Sensor_Data_Units =,uV,,,,,,,,,,,,,,,,,,,,,,,,,,,
# Headset_Name =,DSI-24 SN:2377,,,,,,,,,,,,,,,,,,,,,,,,,,,
# Data_Logger =,DSI-Streamer-v.1.08.44,,,,,,,,,,,,,,,,,,,,,,,,,,,
# Date =,10/19/2020,,,,,,,,,,,,,,,,,,,,,,,,,,,
# Time =,13:53:10,,,,,,,,,,,,,,,,,,,,,,,,,,,
# Patient_ID =,X F 01-JAN-0000 X,,,,,,,,,,,,,,,,,,,,,,,,,,,
# Record_ID =,Startdate 19-OCT-2020 EEG_XX X X,,,,,,,,,,,,,,,,,,,,,,,,,,,
# Filter =,Non-Filtered,,,,,,,,,,,,,,,,,,,,,,,,,,,
# Comments =,,,,,,,,,,,,,,,,,,,,,,,,,,,,
# Reference location:,Pz,,,,,,,,,,,,,,,,,,,,,,,,,,,
# Trigger Source,Wireless,,,,,,,,,,,,,,,,,,,,,,,,,,,
# Channel_Number =,ch_1,ch_2,ch_3,ch_4,ch_5,ch_6,ch_7,ch_8,ch_9,ch_10,ch_11,ch_12,ch_13,ch_14,ch_15,ch_16,ch_17,ch_18,ch_19,ch_20,ch_21,ch_22,ch_23,ch_24,Trigger,Time_Offset,ADC_Status,ADC_Sequence,Event,Comments
Time,P3,C3,F3,Fz,F4,C4,P4,Cz,CM,A1,Fp1,Fp2,T3,T5,O1,O2,X3,X2,F7,F8,X1,A2,T6,T4,Trigger,Time_Offset,ADC_Status,ADC_Sequence,Event,Comments
0.0033,-296.1,-228.3,-249.3,-281.1,167.4,-387.6,-765.3,-959.1,-2371.2,-5651.4,-666.9,-1249.2,-986.1,-432.0,-361.5,-603.6,-16.2,-5.4,-872.1,-640.5,-7.5,-327.9,-2346.9,-619.5,0,6,0,156,3,
0.0067,-306.0,-238.2,-251.4,-282.0,170.7,-399.3,-766.8,-962.1,-2000.7,-5650.5,-679.5,-1258.5,-991.8,-456.6,-350.4,-614.4,-16.2,-5.1,-875.1,-652.8,-7.5,-342.9,-2355.9,-660.6,0,12,0,157,0,
0.0100,-308.7,-234.6,-251.1,-276.0,207.0,-365.7,-767.4,-953.4,-1778.4,-5651.4,-689.1,-1264.2,-987.9,-469.5,-356.4,-627.6,-15.9,-5.4,-894.3,-658.2,-7.5,-357.9,-2380.2,-664.8,0,18,0,158,0,
0.0133,-311.4,-228.3,-241.2,-279.9,152.1,-364.5,-764.7,-958.2,-1926.6,-5651.7,-683.4,-1255.5,-1000.2,-447.6,-354.6,-626.4,-16.5,-5.1,-894.9,-649.8,-7.8,-349.5,-2366.4,-668.7,0,24,0,159,0,
0.0167,-302.7,-233.7,-256.2,-286.8,162.0,-363.0,-759.6,-963.6,-2593.5,-5651.1,-687.3,-1265.4,-1000.5,-444.6,-350.7,-627.9,-16.5,-5.4,-890.1,-661.8,-7.5,-359.4,-2364.3,-690.3,0,30,0,160,0,
0.0200,-303.6,-244.2,-261.9,-292.2,136.8,-390.3,-762.0,-973.2,-2889.9,-5650.8,-689.7,-1265.4,-1009.5,-449.7,-366.6,-618.0,-16.5,-5.1,-897.6,-660.0,-7.5,-348.6,-2363.4,-716.1,0,36,0,161,0,
0.0233,-298.2,-221.7,-239.7,-270.9,181.2,-352.5,-761.4,-953.7,-2519.4,-5650.8,-675.6,-1257.0,-1000.5,-445.5,-372.6,-612.6,-16.5,-5.4,-880.2,-656.4,-7.5,-352.5,-2354.7,-624.6,0,42,0,162,0,
0.0267,-308.7,-235.8,-251.7,-282.9,171.3,-394.5,-763.2,-964.2,-1852.5,-5651.7,-689.4,-1267.2,-1005.6,-444.6,-362.7,-613.2,-16.5,-4.8,-898.8,-673.2,-7.5,-357.0,-2358.0,-668.7,0,48,0,163,0,
0.0300,-303.0,-241.5,-260.7,-290.4,148.5,-383.7,-765.6,-968.1,-1852.5,-5651.7,-694.2,-1272.3,-1006.2,-442.2,-345.0,-618.6,-16.5,-5.1,-905.7,-671.1,-7.2,-357.3,-2377.2,-678.9,0,54,0,164,0,
0.0333,-299.7,-230.7,-247.5,-280.8,152.1,-380.7,-767.4,-964.5,-1852.5,-5651.1,-691.2,-1259.1,-1001.1,-437.4,-367.8,-617.7,-16.2,-4.8,-897.9,-648.0,-7.8,-362.4,-2372.7,-655.5,0,60,0,165,0,
0.0367,-304.8,-235.8,-248.4,-273.3,181.2,-363.0,-759.3,-957.3,-2519.4,-5650.2,-678.9,-1251.0,-1005.0,-449.7,-374.7,-599.1,-16.5,-4.8,-888.6,-653.7,-7.5,-350.7,-2356.5,-654.9,0,66,0,166,0,
0.0400,-309.9,-240.0,-260.7,-298.8,144.9,-407.4,-777.9,-978.3,-2593.5,-5651.1,-697.2,-1272.3,-1027.5,-449.4,-375.6,-621.0,-16.5,-5.1,-900.9,-676.2,-7.5,-361.8,-2375.7,-662.4,0,72,0,167,0,
0.0433,-312.6,-243.0,-260.7,-290.1,176.7,-344.1,-771.6,-963.0,-2519.4,-5651.4,-694.2,-1269.3,-1005.0,-462.3,-368.4,-625.8,-16.5,-4.8,-902.7,-672.6,-7.2,-370.5,-2385.3,-738.0,0,78,0,168,0,
0.0467,-308.1,-243.0,-257.1,-288.6,194.7,-360.3,-779.1,-968.4,-1852.5,-5651.7,-702.3,-1271.4,-1007.1,-448.2,-372.9,-627.0,-16.5,-5.1,-906.3,-663.6,-7.5,-372.0,-2380.8,-683.1,0,84,0,169,0,
0.0500,-302.1,-231.9,-253.5,-295.8,118.8,-416.1,-782.4,-973.5,-1630.2,-5650.8,-683.1,-1263.0,-991.5,-444.6,-363.6,-624.9,-16.5,-5.1,-894.3,-665.4,-7.2,-344.4,-2358.0,-643.2,0,90,0,170,0,
0.0533,-304.2,-238.2,-254.4,-293.7,156.0,-404.7,-778.8,-969.3,-2000.7,-5650.8,-697.5,-1266.0,-1008.6,-450.0,-367.8,-622.5,-16.5,-5.1,-900.6,-663.0,-7.5,-353.7,-2375.4,-659.1,0,96,0,171,0,
0.0567,-300.0,-235.8,-254.4,-293.7,144.9,-387.3,-774.6,-965.4,-2667.6,-5651.4,-691.8,-1264.8,-1007.7,-448.8,-365.4,-624.6,-16.5,-4.8,-896.1,-673.2,-7.5,-356.4,-2374.2,-660.0,0,102,0,172,0,
0.0600,-301.5,-235.8,-249.3,-288.0,183.6,-385.2,-774.3,-963.3,-2741.7,-5652.0,-700.8,-1266.6,-1019.1,-453.6,-365.1,-625.8,-16.8,-5.4,-902.1,-671.7,-7.8,-354.6,-2368.8,-678.6,0,108,0,173,0,
0.0633,-296.7,-233.1,-251.4,-285.6,170.4,-356.7,-757.2,-961.8,-2519.4,-5651.1,-694.2,-1268.4,-1011.6,-455.7,-362.4,-620.1,-16.2,-5.1,-895.2,-667.2,-7.2,-358.5,-2361.0,-703.8,0,114,0,174,0,
0.0667,-298.8,-248.1,-255.9,-294.0,150.6,-388.5,-766.2,-968.1,-1926.6,-5650.2,-692.1,-1268.7,-1006.2,-451.5,-356.1,-614.1,-16.2,-5.1,-908.1,-676.2,-7.5,-357.6,-2354.4,-651.3,0,120,0,175,0,
0.0700,-297.6,-235.2,-246.6,-281.7,166.2,-399.9,-772.2,-967.8,-1704.3,-5651.1,-688.5,-1261.8,-1009.5,-447.9,-349.2,-610.8,-16.5,-4.8,-899.7,-666.6,-7.2,-342.3,-2359.5,-647.1,0,126,0,176,0,
0.0733,-302.7,-239.1,-257.1,-282.6,168.3,-373.2,-761.4,-963.9,-2148.9,-5651.1,-682.2,-1258.8,-1014.9,-453.6,-353.1,-605.1,-16.5,-4.8,-883.8,-661.5,-7.5,-355.2,-2354.1,-662.7,0,132,0,177,0,
0.0767,-303.6,-243.3,-261.6,-286.2,176.4,-384.0,-772.5,-966.0,-2593.5,-5651.1,-699.9,-1268.7,-1010.1,-451.2,-357.6,-615.0,-16.5,-5.1,-891.6,-673.2,-7.5,-354.6,-2365.2,-675.6,0,138,0,178,0,
0.0800,-302.1,-239.1,-252.9,-284.1,182.4,-382.2,-769.2,-965.1,-2741.7,-5650.2,-692.4,-1271.1,-1009.2,-450.3,-364.2,-614.7,-16.2,-5.1,-881.7,-684.0,-7.5,-359.4,-2367.6,-672.3,0,144,0,179,0,
0.0833,-308.1,-241.8,-256.8,-290.4,156.6,-357.0,-764.7,-963.9,-2371.2,-5650.5,-689.4,-1268.7,-1006.2,-464.7,-364.5,-623.7,-16.8,-4.8,-892.5,-672.9,-7.5,-358.2,-2368.5,-704.7,0,150,0,180,0,
0.0867,-299.4,-227.4,-245.4,-280.2,173.1,-379.2,-771.3,-964.8,-2000.7,-5650.8,-688.5,-1263.9,-1009.8,-445.2,-360.9,-627.3,-16.2,-4.8,-891.3,-670.2,-7.8,-359.1,-2367.3,-678.9,0,156,0,181,0,
0.0900,-297.9,-234.6,-257.1,-293.1,134.1,-386.1,-753.0,-962.7,-1852.5,-5652.0,-692.1,-1275.0,-1007.1,-435.6,-353.4,-621.9,-16.8,-5.1,-898.8,-678.6,-7.5,-352.2,-2369.1,-738.6,0,162,0,182,0,
0.0933,-294.0,-228.9,-250.5,-285.9,173.1,-385.2,-761.4,-959.4,-2074.8,-5650.8,-694.2,-1273.5,-1014.0,-442.8,-355.8,-622.5,-16.5,-5.1,-909.3,-677.1,-7.5,-365.1,-2359.5,-621.3,0,168,0,183,0,
0.0967,-295.5,-226.8,-249.3,-288.0,160.2,-377.4,-758.4,-959.1,-2667.6,-5650.2,-684.9,-1258.2,-1019.1,-443.7,-353.1,-617.7,-16.5,-5.1,-904.5,-657.0,-7.2,-341.4,-2358.3,-628.2,0,174,0,184,0,
0.1000,-294.3,-233.4,-253.2,-287.1,168.0,-387.6,-761.4,-964.2,-2815.8,-5650.2,-687.9,-1258.8,-1010.4,-439.2,-348.9,-613.2,-15.6,-5.1,-906.6,-657.3,-7.5,-345.3,-2354.7,-636.9,0,180,0,185,0,
0.1033,-305.1,-248.4,-259.8,-291.9,161.7,-359.1,-758.4,-965.7,-2519.4,-5650.5,-697.2,-1267.5,-1008.0,-448.5,-356.1,-601.8,-16.5,-5.1,-913.5,-675.9,-7.2,-350.7,-2361.6,-670.2,0,186,0,186,0,
0.1067,-306.3,-242.1,-258.6,-287.1,189.0,-375.6,-761.7,-967.2,-1926.6,-5651.4,-686.4,-1255.8,-1015.2,-450.0,-354.0,-599.7,-16.2,-5.1,-907.8,-651.3,-7.5,-361.2,-2369.1,-669.6,0,192,0,187,0,
0.1100,-304.5,-228.0,-246.3,-273.9,216.0,-366.3,-760.5,-962.1,-1704.3,-5651.1,-681.0,-1250.4,-1013.4,-447.9,-366.6,-627.0,-16.5,-5.1,-907.2,-659.7,-7.5,-359.7,-2375.1,-674.1,0,198,0,188,0,
0.1133,-304.5,-231.9,-244.5,-279.0,168.3,-385.2,-757.8,-964.5,-2000.7,-5649.9,-674.7,-1231.8,-1001.1,-440.7,-346.8,-610.2,-16.8,-4.8,-900.3,-635.4,-7.5,-336.6,-2355.0,-639.9,0,204,0,189,0,
0.1167,-301.5,-241.5,-249.0,-274.5,241.5,-346.8,-765.6,-961.8,-2445.3,-5650.2,-681.6,-1242.3,-1021.8,-444.0,-347.4,-634.5,-16.2,-4.8,-911.1,-647.1,-7.5,-362.4,-2373.0,-696.6,0,210,0,190,0,
0.1200,-303.9,-236.1,-249.9,-285.9,147.6,-384.6,-768.0,-966.3,-2667.6,-5651.1,-684.6,-1241.7,-1025.7,-447.9,-343.8,-642.0,-16.5,-4.8,-915.0,-639.0,-7.2,-342.3,-2363.7,-613.2,0,216,0,191,0,
0.1233,-300.3,-231.0,-242.7,-279.9,159.6,-377.7,-767.7,-963.6,-2519.4,-5651.4,-672.9,-1230.9,-1014.9,-444.6,-362.4,-630.9,-15.6,-5.1,-909.3,-641.4,-7.5,-325.2,-2347.2,-639.9,0,222,0,192,0,
0.1267,-305.4,-234.0,-238.2,-269.7,192.0,-366.9,-758.4,-954.9,-1926.6,-5650.5,-675.9,-1226.7,-1003.2,-436.2,-349.2,-618.6,-16.2,-5.1,-904.5,-623.1,-7.2,-324.0,-2344.2,-635.1,0,228,0,193,0,
0.1300,-308.4,-233.1,-243.6,-276.0,183.0,-328.8,-752.4,-954.6,-1704.3,-5650.5,-681.6,-1245.6,-1017.6,-444.9,-353.4,-634.2,-16.2,-5.1,-924.0,-646.5,-7.5,-342.9,-2351.1,-678.6,0,234,0,194,0,
0.1333,-307.5,-228.3,-234.6,-265.8,214.8,-360.9,-764.1,-954.9,-1926.6,-5650.8,-660.0,-1228.2,-1013.4,-430.5,-350.7,-630.9,-16.8,-4.8,-901.5,-615.0,-7.5,-328.5,-2357.4,-632.4,0,240,0,195,0,
0.1367,-308.1,-234.0,-243.6,-272.4,213.3,-392.1,-771.6,-960.9,-2593.5,-5650.8,-660.6,-1234.2,-1011.3,-450.0,-347.1,-619.5,-16.2,-5.4,-895.8,-645.3,-7.2,-332.7,-2352.9,-627.0,0,246,0,196,0,
0.1400,-306.0,-236.4,-252.0,-288.6,178.2,-385.8,-777.3,-966.3,-2741.7,-5650.5,-692.7,-1249.8,-1010.4,-439.2,-345.3,-631.8,-16.8,-5.1,-913.2,-664.5,-7.5,-344.1,-2365.2,-648.6,0,252,0,197,0,
0.1433,-305.7,-236.7,-249.9,-282.6,167.4,-364.5,-766.8,-963.0,-2445.3,-5649.6,-673.5,-1237.5,-1010.7,-440.1,-351.6,-627.6,-16.2,-5.1,-900.3,-647.4,-7.5,-348.0,-2357.7,-656.4,0,258,0,198,0,
0.1467,-310.8,-235.2,-247.8,-275.1,194.1,-362.4,-761.7,-955.8,-1926.6,-5650.2,-669.3,-1235.4,-1012.2,-447.3,-361.8,-615.6,-16.2,-5.4,-905.7,-644.7,-7.2,-330.0,-2347.2,-641.7,0,264,0,199,0,
0.1500,-320.4,-246.9,-249.6,-282.3,183.9,-358.5,-759.3,-960.3,-1852.5,-5651.1,-684.9,-1246.5,-1020.6,-450.6,-357.6,-619.8,-16.2,-5.4,-913.2,-654.6,-7.5,-341.1,-2350.2,-667.2,0,270,0,200,0,
0.1533,-316.8,-241.2,-247.2,-279.6,177.9,-358.8,-760.5,-965.4,-2000.7,-5652.3,-683.7,-1245.6,-1026.9,-450.0,-360.9,-615.9,-16.5,-4.5,-916.5,-654.0,-7.5,-342.9,-2349.9,-654.9,0,276,0,201,0,
0.1567,-310.5,-238.5,-247.5,-282.0,193.5,-337.8,-755.7,-965.7,-2519.4,-5650.8,-680.7,-1245.0,-1022.7,-446.4,-357.0,-625.5,-16.5,-4.8,-922.8,-657.3,-7.8,-347.7,-2349.9,-681.9,0,282,0,202,0,
0.1600,-306.0,-236.4,-239.4,-279.0,174.0,-396.6,-764.1,-966.6,-2815.8,-5649.9,-677.1,-1231.8,-1018.8,-438.6,-350.7,-617.7,-16.5,-5.4,-918.0,-642.3,-7.2,-325.2,-2343.0,-596.4,0,288,0,203,0,
0.1633,-306.6,-240.6,-246.6,-280.5,180.6,-362.7,-749.1,-959.1,-2593.5,-5651.1,-681.3,-1245.6,-1017.6,-440.4,-347.4,-622.5,-16.5,-5.1,-918.0,-648.3,-7.5,-329.4,-2345.1,-616.8,0,294,0,204,0,
0.1667,-305.4,-233.1,-234.3,-264.3,222.0,-349.8,-751.5,-952.8,-1926.6,-5651.1,-673.2,-1231.5,-1011.0,-453.6,-342.0,-619.8,-16.5,-5.1,-910.2,-630.0,-7.5,-332.7,-2346.6,-645.6,0,300,0,205,0,
0.1700,-300.3,-235.8,-229.8,-266.7,234.0,-324.9,-745.5,-948.0,-1704.3,-5651.7,-672.3,-1240.5,-1012.2,-441.3,-343.5,-611.7,-16.5,-5.1,-918.0,-645.9,-7.5,-340.8,-2348.7,-646.2,0,306,0,206,0,
0.1733,-302.1,-236.1,-241.8,-285.9,162.0,-377.7,-749.1,-960.3,-2074.8,-5652.3,-669.6,-1238.1,-1013.1,-433.5,-346.5,-604.5,-16.5,-5.1,-914.7,-639.6,-7.5,-317.7,-2328.0,-613.8,0,312,0,207,0,
0.1767,-299.4,-228.0,-228.6,-270.6,202.8,-358.8,-747.6,-949.8,-2519.4,-5651.1,-660.0,-1221.3,-1006.5,-435.9,-356.7,-610.5,-16.5,-5.4,-906.6,-615.0,-7.2,-317.4,-2336.7,-618.0,0,318,0,208,0,
0.1800,-301.2,-232.8,-224.1,-266.7,190.8,-338.1,-745.5,-946.5,-2815.8,-5650.8,-652.5,-1224.3,-1008.9,-438.6,-346.2,-611.7,-16.5,-4.8,-903.3,-623.4,-7.5,-308.1,-2340.6,-636.6,0,324,0,209,0,
0.1833,-297.0,-226.8,-225.3,-264.3,208.8,-354.0,-749.1,-950.1,-2445.3,-5651.1,-655.5,-1226.7,-1003.2,-430.2,-348.6,-615.0,-16.2,-5.4,-903.9,-631.8,-7.2,-318.6,-2341.8,-618.6,0,330,0,210,0,
0.1867,-293.1,-222.6,-223.2,-263.7,195.3,-369.0,-753.9,-949.8,-1926.6,-5651.7,-657.6,-1221.9,-1008.6,-422.7,-335.1,-613.2,-16.2,-5.4,-902.7,-630.6,-7.5,-315.6,-2343.9,-627.9,0,336,0,211,0,
0.1900,-287.7,-215.7,-219.6,-255.6,240.3,-361.8,-753.0,-946.2,-1778.4,-5652.0,-658.5,-1219.5,-998.7,-423.9,-345.6,-611.7,-16.5,-5.1,-909.0,-620.4,-7.5,-319.2,-2348.7,-636.9,0,342,0,212,0,
0.1933,-291.0,-226.8,-225.3,-267.9,189.0,-348.0,-748.5,-950.7,-2000.7,-5650.2,-666.9,-1232.1,-1008.6,-424.8,-344.1,-626.1,-16.2,-5.1,-918.3,-645.9,-7.5,-326.1,-2349.9,-714.9,0,348,0,213,0,
0.1967,-288.0,-225.9,-236.4,-268.8,198.3,-346.8,-756.0,-954.3,-2519.4,-5650.8,-663.3,-1228.2,-1005.6,-423.6,-334.8,-618.9,-16.2,-5.4,-905.1,-639.0,-7.2,-335.1,-2351.7,-632.7,0,354,0,214,0,
0.2000,-294.0,-232.5,-247.2,-280.8,161.1,-355.2,-753.3,-960.0,-2741.7,-5650.8,-676.2,-1235.4,-1020.9,-432.9,-338.4,-614.1,-16.5,-5.1,-930.9,-643.5,-7.2,-335.4,-2361.0,-639.6,0,360,0,215,0,
0.2033,-294.9,-217.2,-238.2,-273.9,186.0,-387.9,-756.9,-955.8,-2445.3,-5651.7,-672.0,-1235.7,-1030.8,-443.1,-354.0,-618.0,-16.2,-5.1,-928.5,-645.6,-7.5,-335.7,-2351.1,-601.8,0,366,0,216,0,
0.2067,-298.2,-225.0,-231.6,-262.5,208.5,-332.1,-746.7,-944.4,-1926.6,-5651.7,-666.0,-1231.5,-1035.0,-447.9,-359.7,-631.2,-16.8,-5.1,-924.9,-640.2,-7.5,-341.7,-2348.7,-680.1,0,372,0,217,0,
0.2100,-292.2,-224.4,-232.8,-261.9,212.4,-336.3,-752.4,-945.6,-1704.3,-5650.8,-668.1,-1235.1,-1024.8,-455.4,-354.0,-632.7,-15.9,-5.1,-924.6,-629.4,-7.5,-351.6,-2362.2,-643.2,0,378,0,218,0,
0.2133,-306.0,-242.7,-247.8,-284.1,164.1,-393.3,-763.5,-966.6,-1926.6,-5651.1,-678.9,-1260.6,-1023.3,-442.5,-362.4,-633.9,-16.5,-5.1,-934.2,-678.6,-7.5,-353.4,-2365.5,-662.1,0,384,0,219,0,
0.2167,-307.2,-246.3,-259.5,-291.6,149.7,-405.6,-764.7,-976.5,-2445.3,-5650.8,-691.8,-1257.9,-1033.2,-451.8,-357.0,-626.1,-16.2,-4.5,-936.0,-660.0,-7.5,-365.7,-2364.3,-661.5,0,390,0,220,0,
0.2200,-306.9,-243.3,-256.2,-285.6,184.2,-376.5,-763.8,-967.2,-2741.7,-5651.4,-699.3,-1258.5,-1040.7,-454.2,-377.1,-639.6,-16.2,-4.8,-950.7,-668.1,-7.2,-363.3,-2367.6,-649.2,0,396,0,221,0,
0.2233,-297.9,-234.6,-238.8,-269.7,191.4,-365.4,-756.3,-957.6,-2519.4,-5650.5,-675.6,-1244.1,-1019.1,-449.4,-374.1,-639.6,-16.5,-4.8,-923.4,-635.7,-7.5,-341.4,-2354.7,-652.5,0,402,0,222,0,
0.2267,-301.5,-243.0,-250.5,-270.6,214.8,-366.9,-759.3,-963.6,-1926.6,-5650.2,-689.1,-1257.6,-1034.1,-457.2,-374.7,-641.1,-16.5,-5.1,-949.2,-671.7,-7.5,-359.4,-2367.3,-648.0,0,408,0,223,0,
0.2300,-300.0,-235.2,-246.6,-279.6,169.8,-383.4,-754.8,-967.5,-1704.3,-5650.8,-690.6,-1252.2,-1040.1,-463.5,-362.7,-624.0,-16.2,-4.8,-945.6,-655.5,-8.1,-350.4,-2351.1,-641.7,0,414,0,224,0,
0.2333,-298.5,-235.5,-243.6,-279.9,199.5,-372.9,-748.8,-963.6,-2074.8,-5651.1,-704.4,-1260.0,-1043.1,-442.5,-360.9,-624.6,-16.5,-5.1,-956.1,-673.8,-7.2,-356.7,-2355.9,-670.5,0,420,0,225,0,
0.2367,-301.2,-236.7,-234.0,-269.4,186.3,-369.3,-744.3,-958.8,-2445.3,-5652.0,-693.3,-1242.3,-1019.4,-443.1,-357.0,-620.7,-16.5,-4.8,-939.6,-631.8,-7.5,-345.9,-2345.7,-636.6,0,426,0,226,0,
0.2400,-299.1,-239.4,-239.1,-277.5,177.3,-357.3,-751.5,-959.1,-2889.9,-5650.5,-683.7,-1247.7,-1032.3,-446.7,-353.4,-621.0,-16.5,-5.1,-940.2,-654.3,-7.5,-351.6,-2352.6,-684.6,0,432,0,227,0,
0.2433,-301.5,-233.1,-239.7,-270.3,211.2,-352.5,-749.1,-957.0,-2519.4,-5650.8,-674.7,-1248.9,-1038.0,-443.1,-352.5,-611.7,-16.2,-4.8,-930.9,-654.3,-7.5,-351.6,-2357.1,-653.7,0,438,0,228,0,
0.2467,-297.0,-227.4,-235.8,-274.8,192.3,-366.6,-751.5,-961.5,-2000.7,-5650.5,-676.5,-1253.4,-1029.9,-433.8,-358.8,-600.6,-16.5,-5.4,-940.5,-666.3,-7.5,-343.2,-2347.2,-631.5,0,444,0,229,0,
0.2500,-298.5,-231.3,-240.3,-276.6,170.1,-381.9,-745.5,-960.6,-1630.2,-5651.1,-677.7,-1240.8,-1029.3,-432.0,-345.0,-597.3,-16.2,-5.1,-935.1,-636.6,-7.2,-349.5,-2345.1,-642.6,0,450,0,230,0,
0.2533,-294.9,-234.9,-238.8,-272.7,189.3,-336.0,-744.0,-955.5,-2000.7,-5652.0,-682.2,-1254.6,-1031.4,-437.4,-340.5,-629.4,-16.5,-5.1,-936.9,-669.3,-7.5,-359.4,-2350.8,-664.8,0,456,0,231,0,
0.2567,-297.0,-230.4,-236.1,-273.9,170.4,-346.5,-743.4,-952.2,-2593.5,-5650.2,-685.5,-1247.1,-1024.5,-435.3,-352.5,-634.2,-16.2,-4.8,-934.8,-650.7,-7.8,-343.8,-2345.4,-684.0,0,462,0,232,0,
0.2600,-297.0,-228.6,-226.8,-266.7,180.3,-352.8,-742.5,-951.9,-2741.7,-5649.9,-675.6,-1236.6,-1022.7,-442.2,-371.1,-627.0,-16.2,-4.8,-930.0,-636.9,-7.5,-332.4,-2337.9,-672.9,0,468,0,233,0,
0.2633,-299.4,-223.2,-231.9,-265.5,193.8,-388.5,-755.4,-953.1,-2519.4,-5650.5,-676.8,-1233.0,-1019.4,-435.9,-351.3,-624.3,-16.5,-4.8,-948.0,-638.7,-7.5,-338.1,-2339.1,-588.6,0,474,0,234,0,
0.2667,-300.9,-244.8,-254.4,-286.5,177.0,-373.2,-756.9,-962.4,-1926.6,-5651.4,-696.6,-1260.9,-1032.0,-446.7,-353.4,-630.6,-16.5,-5.1,-949.8,-687.0,-7.2,-354.6,-2354.4,-690.0,0,480,0,235,0,
0.2700,-298.5,-230.1,-234.0,-267.9,193.2,-350.1,-744.3,-949.8,-1778.4,-5651.4,-673.5,-1230.6,-1029.9,-448.5,-366.6,-621.3,-16.2,-4.8,-938.4,-632.4,-7.5,-333.9,-2337.3,-608.1,0,486,0,236,0,
0.2733,-297.6,-234.9,-241.5,-272.4,198.0,-360.3,-748.2,-954.0,-1926.6,-5650.8,-687.0,-1236.0,-1036.2,-440.1,-348.6,-619.5,-16.5,-5.1,-945.0,-646.5,-7.5,-341.7,-2342.4,-628.8,0,492,0,237,0,
0.2767,-300.0,-230.4,-238.5,-268.2,209.4,-354.6,-740.4,-950.1,-2519.4,-5651.1,-690.0,-1241.1,-1022.1,-455.4,-362.7,-606.6,-16.5,-4.8,-939.3,-657.6,-7.5,-345.0,-2328.6,-639.0,0,498,0,238,0,
0.2800,-293.1,-219.0,-234.0,-265.2,209.1,-354.3,-741.3,-942.0,-2667.6,-5651.1,-676.5,-1231.2,-1012.2,-424.2,-352.5,-603.0,-16.2,-5.1,-924.3,-637.8,-7.8,-324.0,-2334.9,-617.7,0,504,0,239,0,
0.2833,-297.6,-234.0,-240.9,-273.3,205.8,-340.8,-746.7,-950.1,-2519.4,-5651.4,-682.8,-1244.1,-1020.3,-427.5,-354.0,-622.5,-16.5,-5.4,-942.9,-661.8,-7.5,-339.3,-2331.0,-637.2,0,510,0,240,0,
0.2867,-296.7,-233.7,-246.6,-277.5,192.0,-380.7,-756.0,-958.2,-2000.7,-5651.4,-681.0,-1237.2,-1022.4,-425.1,-354.3,-630.6,-16.2,-5.1,-939.6,-645.9,-7.5,-329.7,-2344.5,-628.8,0,516,0,241,0,
0.2900,-305.4,-234.9,-248.7,-280.8,172.2,-359.4,-757.8,-962.1,-1630.2,-5651.1,-682.2,-1242.9,-1034.7,-438.9,-360.3,-627.0,-16.5,-5.1,-945.9,-641.7,-7.2,-333.9,-2358.6,-630.3,0,522,0,242,0,
0.2933,-303.9,-243.9,-255.3,-287.1,163.8,-374.1,-762.0,-967.8,-1926.6,-5651.1,-691.2,-1247.1,-1043.4,-440.1,-363.0,-624.3,-16.5,-5.4,-947.7,-669.3,-7.5,-338.7,-2343.6,-636.9,0,528,0,243,0,
0.2967,-301.2,-236.1,-252.3,-276.6,193.2,-357.6,-755.7,-963.3,-2519.4,-5650.5,-684.3,-1240.2,-1040.4,-437.4,-354.6,-628.8,-16.8,-5.4,-938.7,-654.9,-7.2,-343.5,-2347.5,-645.0,0,534,0,244,0,
0.3000,-297.3,-237.3,-244.8,-269.1,199.2,-356.1,-757.8,-956.1,-2889.9,-5651.7,-680.4,-1231.2,-1021.5,-436.2,-345.0,-631.2,-16.2,-5.1,-927.9,-649.2,-7.8,-331.8,-2339.4,-650.1,0,540,0,245,0,
0.3033,-298.5,-227.7,-252.6,-270.6,205.2,-337.5,-755.1,-959.4,-2519.4,-5651.4,-686.1,-1238.1,-1023.3,-445.5,-342.3,-622.2,-16.2,-5.1,-939.6,-645.6,-7.5,-334.2,-2348.1,-659.4,0,546,0,246,0,
0.3067,-296.4,-231.3,-251.4,-270.3,201.6,-352.5,-751.2,-961.5,-1852.5,-5650.5,-688.8,-1249.2,-1023.9,-427.8,-339.0,-620.7,-16.5,-5.4,-942.6,-660.3,-7.5,-345.3,-2349.6,-663.0,0,552,0,247,0,
0.3100,-301.8,-226.5,-240.3,-270.9,175.8,-364.5,-750.3,-961.5,-1556.1,-5651.7,-682.5,-1241.4,-1029.0,-429.3,-343.5,-619.8,-16.8,-4.8,-939.6,-650.7,-7.5,-334.5,-2346.6,-625.5,0,558,0,248,0,
0.3133,-301.5,-232.2,-243.0,-267.6,190.5,-366.0,-749.7,-958.8,-2074.8,-5650.8,-675.6,-1239.6,-1016.1,-424.8,-343.2,-617.4,-16.2,-5.1,-939.3,-643.8,-7.5,-331.2,-2334.3,-630.0,0,564,0,249,0,
0.3167,-304.8,-239.7,-249.6,-276.3,184.8,-384.9,-760.2,-965.7,-2519.4,-5651.7,-684.9,-1240.5,-1038.6,-427.2,-341.1,-614.1,-16.2,-4.8,-947.4,-643.8,-7.5,-329.1,-2346.6,-613.2,0,570,0,250,0,
0.3200,-305.1,-237.6,-242.7,-270.6,193.2,-369.6,-755.1,-962.7,-2741.7,-5651.1,-689.4,-1241.4,-1045.5,-426.6,-342.3,-612.0,-16.2,-5.1,-955.2,-647.4,-7.5,-330.3,-2343.6,-628.2,0,576,0,251,0,
0.3233,-307.8,-234.6,-242.4,-269.7,205.8,-356.1,-746.1,-961.2,-2445.3,-5650.2,-681.6,-1239.3,-1029.9,-436.2,-342.9,-609.6,-16.5,-5.4,-944.1,-642.6,-7.8,-334.5,-2346.9,-633.0,0,582,0,252,0,
0.3267,-308.7,-242.7,-248.4,-275.7,201.0,-362.1,-752.4,-959.4,-2074.8,-5650.8,-693.0,-1252.5,-1040.7,-430.2,-329.4,-625.2,-16.5,-5.7,-951.3,-665.4,-7.5,-348.9,-2347.5,-649.8,0,588,0,253,0,
0.3300,-307.8,-242.7,-248.1,-275.4,177.3,-374.7,-754.8,-963.6,-1704.3,-5651.7,-697.5,-1247.1,-1046.4,-435.9,-320.1,-624.9,-16.2,-5.1,-947.1,-651.3,-7.2,-347.1,-2350.8,-663.6,0,594,0,254,0,
0.3333,-305.4,-239.1,-236.1,-257.1,241.2,-321.9,-745.5,-950.7,-1926.6,-5651.1,-684.0,-1243.5,-1040.1,-437.4,-359.7,-637.8,-16.2,-5.1,-954.9,-651.6,-7.5,-348.0,-2347.8,-652.8,0,600,0,255,0,
0.3367,-304.8,-236.7,-232.2,-258.9,213.3,-369.9,-744.0,-958.8,-2593.5,-5649.9,-666.9,-1228.8,-1038.9,-425.1,-334.8,-619.5,-16.5,-5.1,-936.0,-625.5,-7.2,-327.6,-2329.2,-670.5,0,606,0,0,0,
0.3400,-305.4,-244.5,-249.0,-284.1,156.0,-366.0,-752.1,-971.1,-2741.7,-5650.2,-692.7,-1248.0,-1047.9,-434.7,-329.4,-618.3,-16.5,-5.1,-965.1,-674.4,-7.5,-342.0,-2342.1,-659.1,0,612,0,1,0,
0.3433,-303.3,-240.0,-240.3,-263.1,213.6,-358.5,-745.5,-957.3,-2445.3,-5651.1,-674.7,-1233.0,-1027.2,-431.7,-350.4,-601.2,-16.2,-4.8,-936.9,-631.8,-7.2,-325.5,-2337.0,-604.8,0,618,0,2,0,
0.3467,-309.3,-246.6,-257.1,-285.3,164.7,-347.4,-740.1,-964.5,-2000.7,-5651.4,-693.3,-1257.3,-1039.8,-452.4,-352.5,-598.8,-16.5,-5.1,-966.3,-656.7,-7.8,-344.1,-2338.8,-649.8,0,624,0,3,0,
0.3500,-305.7,-244.2,-247.2,-280.8,186.9,-365.4,-752.4,-965.4,-1704.3,-5650.8,-692.4,-1256.7,-1039.5,-443.7,-353.1,-613.5,-16.5,-5.1,-973.2,-657.9,-7.2,-339.0,-2340.9,-636.9,0,630,0,4,0,
0.3533,-310.8,-250.2,-255.3,-290.1,161.4,-377.4,-752.1,-979.2,-1926.6,-5650.8,-705.3,-1260.0,-1049.4,-430.2,-332.4,-616.5,-16.5,-5.1,-969.6,-654.9,-7.5,-352.2,-2340.9,-699.9,0,636,0,5,0,
0.3567,-312.6,-243.9,-258.6,-288.9,181.8,-366.0,-747.3,-968.7,-2519.4,-5651.4,-709.5,-1268.1,-1050.0,-441.3,-349.5,-616.5,-16.5,-4.8,-967.2,-665.1,-7.5,-355.5,-2345.7,-698.4,0,642,0,6,0,
0.3600,-311.7,-239.1,-242.7,-274.2,180.6,-378.0,-750.6,-958.8,-2741.7,-5650.8,-689.4,-1245.9,-1032.9,-433.5,-353.7,-613.2,-16.5,-5.1,-954.6,-646.5,-7.8,-328.5,-2322.9,-595.2,0,648,0,7,0,
0.3633,-309.3,-234.9,-245.7,-268.2,216.0,-354.0,-747.3,-962.4,-2519.4,-5651.4,-684.0,-1241.4,-1037.1,-431.1,-346.8,-626.4,-16.2,-4.8,-952.8,-646.5,-7.5,-322.5,-2334.3,-643.8,0,654,0,8,0,
0.3667,-304.2,-231.0,-239.4,-273.3,184.2,-358.8,-746.1,-958.5,-2000.7,-5649.9,-678.3,-1240.2,-1038.6,-432.9,-342.6,-624.0,-16.5,-4.8,-951.0,-645.9,-7.5,-328.2,-2331.3,-618.6,0,660,0,9,0,
0.3700,-309.6,-231.3,-239.4,-274.2,194.7,-366.9,-748.5,-964.2,-1704.3,-5650.5,-679.5,-1238.4,-1034.7,-428.1,-344.7,-621.6,-16.2,-4.8,-944.7,-643.8,-7.5,-324.0,-2336.4,-647.1,0,666,0,10,0,
0.3733,-308.7,-234.9,-239.4,-261.6,240.0,-347.1,-745.2,-960.3,-1926.6,-5650.8,-682.2,-1238.4,-1033.5,-448.5,-351.9,-618.0,-16.5,-5.1,-956.4,-651.6,-7.5,-333.0,-2334.0,-642.6,0,672,0,11,0,
0.3767,-313.8,-237.9,-235.5,-274.5,162.9,-372.3,-748.2,-964.5,-2371.2,-5651.1,-680.4,-1237.8,-1030.8,-450.0,-347.4,-615.3,-16.8,-4.8,-955.5,-641.4,-7.5,-321.9,-2328.3,-630.0,0,678,0,12,0,
0.3800,-302.7,-231.3,-241.5,-266.4,196.2,-368.7,-752.7,-961.5,-2815.8,-5651.1,-681.0,-1241.1,-1030.2,-459.0,-341.7,-623.7,-16.5,-5.1,-951.3,-652.8,-7.5,-336.6,-2349.9,-656.7,0,684,0,13,0,
0.3833,-306.3,-234.6,-235.5,-254.1,248.4,-317.7,-733.5,-949.8,-2445.3,-5650.5,-685.8,-1240.2,-1036.2,-439.8,-353.7,-621.3,-16.5,-4.8,-951.0,-650.4,-7.2,-346.2,-2332.8,-684.9,0,690,0,14,0,
0.3867,-305.4,-232.8,-241.8,-258.6,227.7,-357.6,-744.9,-953.4,-2000.7,-5650.8,-684.9,-1235.7,-1028.7,-431.1,-345.3,-623.4,-16.5,-4.8,-961.8,-642.0,-7.2,-328.5,-2342.7,-633.0,0,696,0,15,0,
0.3900,-312.3,-243.3,-250.2,-269.1,186.3,-317.7,-743.7,-959.1,-1704.3,-5651.1,-695.1,-1245.3,-1040.4,-437.1,-350.4,-629.4,-16.5,-5.1,-978.0,-645.0,-7.2,-343.5,-2349.6,-683.7,0,702,0,16,0,
0.3933,-316.5,-242.7,-256.2,-281.7,165.9,-396.3,-758.1,-972.3,-1926.6,-5651.7,-702.3,-1250.7,-1045.5,-439.2,-350.4,-626.7,-16.5,-5.1,-972.3,-657.0,-7.2,-333.9,-2343.3,-588.3,0,708,0,17,0,
0.3967,-315.3,-240.3,-250.2,-279.0,175.8,-363.3,-753.3,-968.7,-2445.3,-5650.5,-702.0,-1248.3,-1042.2,-433.8,-345.3,-624.3,-16.5,-5.1,-972.6,-653.4,-7.5,-336.9,-2343.9,-639.9,0,714,0,18,0,
0.4000,-312.3,-238.5,-247.2,-272.4,207.9,-342.3,-743.7,-961.8,-2741.7,-5650.2,-693.6,-1233.3,-1049.7,-443.1,-341.7,-626.1,-16.5,-4.8,-969.9,-629.1,-7.5,-330.0,-2346.9,-660.0,0,720,0,19,0,
0.4033,-301.2,-229.5,-239.4,-264.0,233.7,-346.8,-741.3,-953.1,-2593.5,-5650.2,-692.7,-1237.5,-1042.5,-427.5,-332.1,-627.9,-16.5,-5.1,-968.4,-646.2,-7.2,-335.4,-2334.9,-606.0,0,726,0,20,0,
0.4067,-300.6,-219.0,-230.4,-269.1,170.4,-385.2,-744.9,-953.4,-2000.7,-5651.1,-673.2,-1225.2,-1032.9,-437.7,-331.2,-615.6,-16.2,-5.1,-951.9,-640.5,-7.8,-300.3,-2322.0,-605.4,0,732,0,21,0,
0.4100,-300.6,-228.9,-242.1,-270.9,199.2,-349.2,-737.1,-949.8,-1704.3,-5650.5,-680.4,-1228.2,-1044.9,-429.3,-330.6,-620.1,-16.2,-5.1,-963.3,-636.3,-7.5,-322.5,-2330.7,-621.3,0,738,0,22,0,
0.4133,-300.6,-225.9,-244.5,-271.5,204.6,-353.4,-736.2,-952.2,-2000.7,-5650.5,-681.3,-1227.9,-1038.9,-422.7,-328.5,-620.7,-16.5,-5.1,-957.9,-633.6,-7.2,-315.0,-2327.1,-633.0,0,744,0,23,0,
0.4167,-306.6,-226.2,-242.1,-273.6,201.6,-346.5,-742.2,-954.3,-2445.3,-5650.8,-686.7,-1228.5,-1036.5,-423.6,-329.7,-620.1,-16.2,-4.8,-965.1,-631.2,-7.5,-323.7,-2333.7,-623.7,0,750,0,24,0,
0.4200,-301.5,-218.7,-237.9,-266.4,204.9,-340.2,-739.2,-952.2,-2815.8,-5651.4,-677.7,-1223.7,-1031.7,-428.4,-335.4,-617.1,-16.5,-4.8,-956.4,-630.3,-7.5,-323.7,-2338.5,-634.8,0,756,0,25,0,
0.4233,-307.5,-231.3,-244.2,-273.6,206.4,-355.2,-744.0,-964.2,-2593.5,-5651.1,-696.3,-1239.6,-1029.9,-434.1,-318.3,-623.7,-16.5,-5.1,-972.3,-657.0,-7.8,-326.4,-2331.9,-645.9,0,762,0,26,0,
0.4267,-304.8,-227.1,-240.9,-271.2,210.9,-350.4,-738.0,-959.1,-1926.6,-5651.1,-693.9,-1235.1,-1035.3,-449.1,-329.1,-617.7,-16.2,-5.1,-964.2,-637.5,-7.2,-332.7,-2324.7,-642.3,0,768,0,27,0,
0.4300,-306.0,-225.3,-236.7,-266.4,205.8,-363.0,-738.6,-960.9,-1630.2,-5650.8,-670.5,-1221.0,-1027.2,-424.8,-333.3,-624.0,-16.2,-5.4,-958.2,-623.7,-7.8,-312.3,-2345.7,-642.9,0,774,0,28,0,
0.4333,-301.5,-220.2,-234.9,-264.0,240.3,-289.8,-726.6,-949.5,-2000.7,-5651.1,-682.5,-1238.1,-1034.7,-438.3,-339.3,-627.3,-16.2,-5.1,-958.8,-643.8,-7.2,-343.2,-2337.3,-672.6,0,780,0,29,0,
0.4367,-304.2,-228.0,-239.1,-277.5,174.0,-396.0,-741.0,-967.5,-2519.4,-5651.7,-686.1,-1225.8,-1020.0,-424.2,-334.2,-615.9,-16.5,-5.1,-969.3,-618.0,-7.5,-312.6,-2332.2,-654.9,0,786,0,30,0,
0.4400,-303.3,-234.9,-251.4,-271.2,204.6,-367.5,-747.3,-961.5,-2741.7,-5651.7,-684.9,-1233.0,-1031.4,-434.4,-324.9,-618.6,-16.5,-5.1,-959.7,-647.1,-7.5,-319.2,-2333.7,-600.6,0,792,0,31,0,
0.4433,-299.7,-231.0,-242.4,-276.6,196.8,-365.7,-745.5,-962.1,-2519.4,-5651.1,-709.8,-1232.7,-1032.9,-434.7,-323.7,-618.9,-16.8,-5.1,-987.3,-618.0,-7.5,-333.0,-2336.1,-644.7,0,798,0,32,0,
0.4467,-302.7,-229.8,-246.3,-272.1,194.4,-340.2,-739.8,-954.9,-1926.6,-5650.8,-691.8,-1243.5,-1041.0,-435.9,-350.1,-614.4,-16.2,-4.8,-979.5,-645.3,-6.9,-336.0,-2338.8,-631.5,0,804,0,33,0,
0.4500,-309.9,-232.8,-258.0,-282.3,179.1,-377.4,-739.8,-964.8,-1704.3,-5651.1,-681.9,-1237.5,-1038.0,-431.1,-328.8,-612.6,-16.5,-5.1,-967.8,-631.5,-7.8,-325.5,-2339.4,-660.0,0,810,0,34,0,
0.4533,-309.0,-231.9,-255.3,-288.0,190.8,-338.1,-747.6,-967.8,-2000.7,-5650.8,-693.9,-1252.5,-1051.2,-445.2,-341.7,-619.2,-16.2,-5.1,-965.4,-663.9,-7.2,-344.1,-2349.0,-656.1,0,816,0,35,0,
0.4567,-307.8,-238.5,-257.4,-280.5,214.5,-369.9,-747.9,-968.7,-2519.4,-5650.8,-688.5,-1239.9,-1044.9,-445.8,-331.8,-634.2,-16.5,-5.1,-962.4,-638.4,-7.5,-336.3,-2343.6,-635.4,0,822,0,36,0,
0.4600,-308.4,-244.5,-267.3,-303.9,155.4,-397.5,-759.0,-976.5,-2741.7,-5650.5,-705.3,-1258.5,-1053.0,-435.0,-330.6,-642.6,-16.2,-4.8,-987.6,-661.2,-7.5,-336.9,-2349.9,-637.5,0,828,0,37,0,
0.4633,-304.8,-232.2,-255.0,-289.8,171.3,-377.4,-749.4,-967.2,-2445.3,-5651.1,-685.2,-1240.5,-1052.4,-426.9,-348.3,-635.4,-16.2,-5.1,-966.6,-633.3,-7.2,-327.3,-2343.9,-659.4,0,834,0,38,0,
0.4667,-304.5,-213.9,-234.0,-269.1,209.7,-357.9,-746.4,-953.7,-1926.6,-5651.1,-683.4,-1231.2,-1038.6,-442.2,-343.5,-633.6,-16.5,-5.1,-955.5,-626.7,-7.2,-325.8,-2348.7,-649.2,0,840,0,39,0,
0.4700,-309.6,-233.4,-247.5,-284.7,182.7,-374.1,-753.6,-962.7,-1630.2,-5649.9,-687.6,-1238.1,-1037.4,-428.7,-348.3,-642.6,-16.2,-5.1,-957.0,-645.6,-7.5,-323.7,-2349.3,-644.4,0,846,0,40,0,
0.4733,-300.0,-212.4,-231.9,-270.9,203.1,-357.3,-746.7,-950.1,-1926.6,-5651.1,-677.4,-1229.7,-1031.7,-424.2,-343.2,-637.2,-16.5,-5.4,-949.2,-622.2,-7.2,-311.7,-2336.7,-628.8,0,852,0,41,0,
0.4767,-308.4,-227.1,-243.3,-275.4,211.5,-360.9,-756.9,-960.9,-2593.5,-5650.8,-685.2,-1237.5,-1041.3,-431.1,-338.7,-635.1,-16.2,-5.1,-955.2,-639.6,-7.5,-318.9,-2358.6,-642.9,0,858,0,42,0,
0.4800,-307.8,-230.4,-248.4,-276.9,198.9,-330.3,-745.5,-956.1,-2741.7,-5651.1,-700.2,-1245.0,-1058.7,-433.8,-339.3,-629.7,-16.5,-5.1,-979.8,-637.2,-7.5,-343.8,-2353.2,-665.4,0,864,0,43,0,
0.4833,-301.8,-216.9,-229.5,-265.5,215.1,-363.6,-745.2,-952.5,-2593.5,-5650.5,-681.9,-1224.3,-1046.1,-425.1,-327.9,-618.6,-16.5,-5.1,-962.7,-619.5,-7.5,-315.0,-2341.8,-630.3,0,870,0,44,0,
0.4867,-302.4,-231.0,-246.0,-279.0,193.2,-344.4,-741.0,-957.3,-1926.6,-5650.2,-695.1,-1239.0,-1032.0,-429.6,-330.3,-620.4,-16.5,-5.1,-975.0,-632.1,-7.8,-328.2,-2343.0,-657.3,0,876,0,45,0,
0.4900,-301.2,-232.5,-242.1,-280.8,183.0,-361.8,-744.9,-962.1,-1704.3,-5649.6,-689.1,-1250.1,-1036.5,-426.0,-333.9,-619.5,-16.5,-5.1,-967.2,-652.2,-7.5,-326.7,-2343.3,-634.5,0,882,0,46,0,
0.4933,-297.6,-219.6,-242.7,-273.0,227.4,-374.1,-746.1,-958.8,-1926.6,-5651.1,-693.6,-1240.8,-1042.2,-440.7,-321.0,-620.7,-16.2,-5.1,-973.5,-631.5,-7.8,-327.0,-2346.3,-622.5,0,888,0,47,0,
0.4967,-301.5,-214.2,-228.3,-273.3,177.3,-350.7,-740.4,-954.9,-2445.3,-5651.1,-700.2,-1236.3,-1023.0,-428.4,-340.2,-636.0,-16.2,-5.1,-979.2,-623.4,-7.2,-314.7,-2346.0,-627.6,0,894,0,48,0,
0.5000,-304.2,-223.2,-242.1,-276.6,185.4,-327.6,-736.8,-954.0,-2889.9,-5650.2,-694.8,-1242.3,-1026.3,-427.5,-339.9,-628.2,-16.5,-5.1,-961.2,-648.6,-7.8,-318.0,-2334.6,-668.1,0,900,0,49,0,
0.5033,-301.5,-220.2,-244.8,-277.8,193.5,-364.8,-735.9,-959.7,-2593.5,-5650.5,-693.9,-1240.5,-1028.7,-423.6,-323.7,-624.0,-16.2,-5.1,-968.7,-639.9,-7.2,-327.0,-2330.7,-654.3,0,906,0,50,0,
0.5067,-296.7,-218.7,-243.3,-275.4,190.8,-377.4,-751.8,-963.3,-1926.6,-5651.1,-684.3,-1233.3,-1023.6,-417.9,-321.0,-627.0,-16.2,-4.8,-962.7,-623.7,-7.5,-316.5,-2350.2,-594.9,0,912,0,51,0,
0.5100,-296.4,-216.6,-241.2,-278.7,191.1,-355.8,-743.4,-962.1,-1778.4,-5650.8,-696.3,-1245.3,-1038.6,-419.1,-332.1,-627.6,-16.5,-4.8,-976.5,-640.8,-7.5,-323.1,-2341.5,-658.8,0,918,0,52,0,
0.5133,-299.1,-228.3,-248.1,-281.7,186.6,-372.3,-752.1,-966.0,-1926.6,-5650.5,-694.2,-1247.1,-1033.8,-430.8,-340.8,-628.2,-15.9,-5.1,-978.9,-641.4,-7.8,-320.7,-2341.5,-629.1,0,924,0,53,0,
0.5167,-300.0,-224.7,-248.7,-285.9,178.8,-367.2,-736.8,-964.8,-2445.3,-5650.2,-690.3,-1244.1,-1035.6,-433.2,-334.8,-629.1,-16.5,-5.1,-971.4,-651.3,-7.2,-319.5,-2337.6,-710.1,0,930,0,54,0,
0.5200,-299.7,-226.8,-251.4,-279.0,221.7,-354.6,-745.8,-964.5,-2667.6,-5651.1,-695.1,-1248.6,-1037.7,-438.3,-335.7,-629.4,-16.2,-5.1,-976.5,-648.3,-7.5,-339.6,-2342.1,-654.6,0,936,0,55,0,
0.5233,-300.0,-228.6,-250.5,-284.4,191.4,-368.4,-745.2,-971.7,-2445.3,-5651.1,-702.0,-1253.4,-1044.6,-438.9,-329.1,-624.0,-16.2,-5.1,-973.8,-648.9,-7.2,-332.1,-2343.6,-629.1,0,942,0,56,0,
0.5267,-290.4,-220.8,-250.2,-281.7,179.4,-364.8,-745.8,-971.1,-2074.8,-5650.5,-698.1,-1252.8,-1032.3,-445.8,-323.1,-633.6,-15.9,-4.8,-974.7,-650.7,-7.5,-326.4,-2354.7,-659.4,0,948,0,57,0,
0.5300,-289.8,-223.5,-259.8,-282.0,195.9,-342.3,-746.1,-968.4,-1704.3,-5650.5,-708.0,-1255.8,-1046.7,-436.8,-316.8,-643.2,-16.5,-5.1,-975.0,-660.0,-7.5,-342.6,-2360.7,-678.9,0,954,0,58,0,
0.5333,-300.9,-235.8,-263.1,-292.5,167.4,-392.4,-759.0,-978.6,-2000.7,-5650.8,-707.7,-1260.0,-1035.3,-417.6,-325.2,-641.4,-15.9,-5.1,-982.5,-645.9,-7.2,-346.5,-2363.7,-653.1,0,960,0,59,0,
0.5367,-300.3,-231.0,-257.1,-280.8,159.3,-368.7,-747.6,-967.8,-2519.4,-5651.4,-699.0,-1250.7,-1032.6,-425.4,-336.3,-628.5,-16.5,-5.1,-979.2,-647.7,-7.5,-341.7,-2347.8,-690.9,0,966,0,60,0,
0.5400,-306.3,-219.9,-249.6,-271.8,186.6,-373.5,-750.9,-971.7,-2815.8,-5650.8,-700.8,-1243.2,-1038.6,-421.5,-333.3,-633.9,-16.5,-5.1,-970.5,-647.4,-7.5,-330.3,-2357.4,-634.8,0,972,0,61,0,
0.5433,-304.5,-219.0,-248.4,-270.9,174.3,-387.3,-750.0,-970.2,-2593.5,-5650.5,-697.5,-1235.4,-1052.1,-423.9,-342.6,-628.5,-16.5,-5.1,-974.1,-627.0,-7.5,-321.3,-2349.3,-655.5,0,978,0,62,0,
0.5467,-303.9,-225.9,-249.6,-271.5,186.0,-352.2,-741.0,-969.3,-2074.8,-5650.2,-694.5,-1245.6,-1050.0,-430.8,-339.0,-638.1,-16.8,-4.8,-984.6,-636.3,-7.5,-339.3,-2349.0,-654.9,0,984,0,63,0,
0.5500,-304.8,-230.4,-256.5,-274.8,170.1,-385.8,-752.7,-975.0,-1704.3,-5650.8,-697.2,-1245.0,-1026.6,-431.4,-334.5,-633.9,-16.2,-4.8,-975.9,-632.4,-7.5,-329.4,-2357.1,-637.5,0,990,0,64,0,
0.5533,-303.6,-235.2,-257.1,-267.6,218.4,-325.8,-743.7,-967.8,-2000.7,-5651.4,-696.6,-1251.3,-1052.4,-428.4,-333.0,-632.1,-16.2,-5.1,-972.0,-657.3,-7.5,-342.3,-2355.6,-671.1,0,996,0,65,0,
0.5567,-295.2,-223.8,-252.0,-272.7,179.4,-390.0,-747.3,-972.3,-2519.4,-5650.5,-692.1,-1239.9,-1029.6,-437.1,-318.6,-619.8,-16.2,-5.1,-973.5,-637.8,-7.5,-320.1,-2340.6,-630.9,0,1002,0,66,0,
0.5600,-307.2,-242.7,-263.1,-284.1,159.0,-380.4,-747.0,-981.9,-2889.9,-5650.5,-704.4,-1253.4,-1035.9,-429.3,-316.2,-626.1,-15.9,-4.8,-986.1,-646.5,-7.5,-326.1,-2338.5,-652.2,0,1008,0,67,0,
0.5633,-308.4,-239.7,-267.0,-284.7,182.1,-358.8,-747.3,-980.7,-2519.4,-5650.8,-722.7,-1266.6,-1045.5,-419.4,-318.9,-629.4,-16.2,-5.4,-1004.1,-657.6,-7.5,-349.8,-2350.5,-659.7,0,1014,0,68,0,
0.5667,-317.4,-241.5,-267.0,-279.9,188.4,-363.3,-742.2,-982.5,-2000.7,-5651.4,-722.1,-1250.1,-1038.3,-435.0,-342.9,-620.1,-16.2,-5.1,-983.4,-653.7,-7.2,-341.1,-2344.8,-666.9,0,1020,0,69,0,
0.5700,-306.3,-240.6,-267.0,-294.3,162.0,-345.9,-738.3,-982.5,-1778.4,-5650.2,-708.9,-1257.9,-1036.8,-426.0,-327.0,-610.5,-16.2,-5.1,-991.2,-654.3,-7.2,-334.2,-2342.7,-681.9,0,1026,0,70,0,
0.5733,-313.8,-258.0,-279.9,-298.5,183.3,-394.2,-752.4,-995.7,-1926.6,-5650.5,-716.1,-1265.1,-1060.8,-439.2,-317.4,-601.5,-16.2,-5.1,-999.6,-669.3,-7.5,-349.5,-2347.2,-629.7,0,1032,0,71,0,
0.5767,-311.4,-258.6,-286.2,-302.7,161.1,-368.4,-754.5,-996.9,-2519.4,-5650.5,-726.0,-1272.9,-1063.2,-442.2,-321.3,-630.6,-16.5,-5.4,-1009.5,-666.6,-7.2,-358.2,-2365.5,-678.3,0,1038,0,72,0,
0.5800,-311.1,-247.2,-270.9,-289.2,189.0,-370.2,-746.1,-980.1,-2889.9,-5651.4,-708.3,-1256.4,-1047.9,-432.3,-339.0,-637.8,-16.2,-5.1,-990.9,-666.3,-7.8,-328.8,-2337.9,-639.0,0,1044,0,73,0,
0.5833,-306.3,-231.6,-245.7,-276.3,171.3,-336.9,-741.9,-973.8,-2519.4,-5650.5,-687.6,-1233.0,-1035.9,-426.9,-346.5,-642.0,-16.2,-5.4,-960.3,-627.0,-7.5,-307.5,-2329.5,-637.5,0,1050,0,74,0,
0.5867,-311.1,-244.8,-260.4,-277.8,187.5,-350.7,-738.9,-979.5,-2000.7,-5651.1,-700.8,-1244.4,-1036.8,-443.1,-330.6,-639.0,-16.5,-5.1,-978.0,-633.6,-7.5,-317.4,-2322.6,-655.2,0,1056,0,75,0,
0.5900,-305.1,-246.0,-261.0,-286.5,174.3,-373.5,-739.8,-978.3,-1630.2,-5650.5,-705.3,-1246.8,-1047.9,-435.9,-318.0,-637.8,-16.5,-5.4,-981.0,-637.2,-7.5,-324.0,-2343.6,-690.3,0,1062,0,76,0,
0.5933,-301.8,-230.7,-249.6,-279.6,183.0,-381.3,-750.9,-976.8,-1926.6,-5650.8,-705.6,-1249.5,-1045.5,-422.1,-333.9,-641.1,-16.8,-5.4,-982.8,-653.1,-7.2,-319.8,-2331.9,-591.0,0,1068,0,77,0,
0.5967,-308.7,-243.9,-252.6,-277.2,175.2,-343.2,-742.8,-970.8,-2519.4,-5650.2,-689.1,-1235.4,-1033.8,-422.7,-331.8,-632.7,-16.2,-5.1,-963.6,-631.2,-7.5,-311.7,-2347.8,-651.9,0,1074,0,78,0,
0.6000,-306.9,-233.7,-250.5,-272.4,192.3,-385.8,-748.5,-976.8,-2815.8,-5650.8,-690.9,-1241.7,-1041.0,-423.0,-328.2,-636.6,-16.5,-4.8,-964.5,-645.9,-7.5,-316.8,-2355.0,-633.3,0,1080,0,79,0,
0.6033,-306.9,-230.4,-251.7,-275.4,159.9,-368.4,-744.6,-970.2,-2593.5,-5651.1,-701.7,-1243.2,-1039.5,-426.6,-321.6,-637.5,-16.5,-5.4,-974.4,-633.3,-7.2,-324.6,-2351.7,-634.5,0,1086,0,80,0,
0.6067,-309.6,-236.4,-258.3,-276.3,170.1,-366.9,-743.1,-975.0,-2074.8,-5650.8,-697.2,-1252.2,-1048.8,-427.5,-317.4,-633.3,-16.2,-4.8,-979.8,-654.9,-7.2,-331.2,-2358.6,-665.1,0,1092,0,81,0,
0.6100,-303.9,-231.9,-242.7,-261.3,189.6,-346.5,-734.1,-966.3,-1778.4,-5650.2,-681.6,-1232.1,-1040.4,-437.4,-339.0,-624.6,-16.5,-5.1,-962.7,-627.9,-7.2,-325.2,-2331.6,-664.2,0,1098,0,82,0,
0.6133,-297.0,-216.3,-234.6,-257.7,231.6,-318.6,-741.6,-956.7,-2000.7,-5650.2,-692.1,-1240.8,-1047.9,-436.5,-330.3,-642.9,-15.9,-5.1,-971.1,-651.0,-7.2,-341.1,-2361.3,-683.1,0,1104,0,83,0,
0.6167,-299.7,-237.3,-251.1,-276.0,177.9,-364.2,-740.7,-963.3,-2445.3,-5650.5,-693.3,-1235.7,-1035.0,-429.0,-328.5,-622.2,-16.5,-5.1,-973.8,-608.7,-7.8,-325.5,-2329.8,-633.0,0,1110,0,84,0,
0.6200,-302.1,-232.5,-246.3,-273.3,165.3,-387.3,-742.8,-968.1,-2815.8,-5651.1,-688.5,-1233.9,-1031.4,-425.7,-324.0,-617.4,-16.5,-4.8,-967.8,-634.5,-7.2,-307.8,-2328.3,-594.9,0,1116,0,85,0,
0.6233,-297.3,-228.6,-243.3,-263.4,237.6,-349.2,-732.6,-962.7,-2445.3,-5650.8,-691.5,-1236.0,-1037.1,-429.9,-321.0,-628.2,-16.5,-5.1,-974.4,-632.4,-7.5,-319.5,-2332.5,-663.6,0,1122,0,86,0,
0.6267,-297.3,-220.5,-237.6,-268.5,170.4,-344.7,-732.3,-963.6,-2000.7,-5650.5,-694.8,-1236.9,-1036.5,-440.4,-320.7,-627.9,-16.2,-4.8,-975.0,-627.3,-7.5,-319.8,-2338.5,-635.4,0,1128,0,87,0,
0.6300,-299.4,-232.2,-245.7,-273.0,166.8,-351.3,-738.3,-967.5,-1630.2,-5650.5,-691.8,-1238.1,-1067.7,-415.8,-325.2,-626.7,-16.5,-5.1,-972.6,-629.4,-7.8,-322.2,-2340.6,-615.6,0,1134,0,88,0,
0.6333,-296.1,-223.8,-231.3,-262.2,202.5,-353.4,-737.1,-966.9,-2000.7,-5650.8,-680.4,-1224.9,-1044.9,-429.9,-323.1,-625.5,-16.2,-5.1,-960.0,-621.3,-7.8,-313.8,-2333.7,-628.2,0,1140,0,89,0,
0.6367,-294.0,-229.5,-237.6,-259.2,216.6,-318.0,-728.1,-954.0,-2297.1,-5651.1,-683.1,-1235.7,-1032.6,-429.9,-325.2,-623.7,-16.8,-5.1,-966.3,-632.1,-7.5,-327.6,-2336.1,-668.1,0,1146,0,90,0,
0.6400,-293.4,-215.7,-228.6,-264.0,177.3,-332.7,-729.3,-957.6,-2667.6,-5650.8,-676.5,-1227.9,-1040.1,-429.3,-325.5,-627.9,-16.5,-4.8,-967.5,-623.1,-7.5,-317.4,-2337.3,-630.3,0,1152,0,91,0,
0.6433,-294.0,-231.9,-245.1,-261.6,203.1,-360.3,-736.8,-953.7,-2593.5,-5649.6,-680.7,-1228.5,-1016.4,-414.3,-324.3,-630.3,-16.8,-5.1,-970.5,-639.6,-7.2,-317.4,-2339.1,-622.5,0,1158,0,92,0,
0.6467,-295.5,-227.1,-237.3,-262.2,179.4,-373.5,-733.8,-954.3,-1926.6,-5650.2,-680.7,-1221.3,-1027.5,-430.2,-326.4,-628.2,-16.5,-5.1,-966.9,-609.3,-6.9,-309.6,-2335.5,-613.5,0,1164,0,93,0,
0.6500,-294.9,-224.7,-234.6,-254.7,195.9,-350.4,-727.2,-951.3,-1778.4,-5650.8,-682.5,-1231.8,-1030.2,-427.5,-326.7,-626.4,-16.5,-5.1,-969.6,-642.9,-7.2,-313.5,-2337.6,-626.4,0,1170,0,94,0,
0.6533,-295.5,-219.3,-228.0,-243.6,233.4,-335.1,-726.6,-945.0,-2000.7,-5651.7,-677.1,-1224.0,-1033.2,-442.8,-327.0,-632.1,-16.2,-5.1,-967.2,-630.3,-7.5,-322.2,-2344.5,-643.8,0,1176,0,95,0,
0.6567,-293.1,-220.2,-235.5,-258.0,189.3,-353.1,-729.6,-950.1,-2519.4,-5651.1,-681.6,-1226.4,-1034.1,-440.4,-321.0,-624.9,-16.2,-5.1,-977.7,-628.2,-7.5,-318.6,-2339.4,-623.4,0,1182,0,96,0,
0.6600,-296.7,-227.7,-234.9,-258.9,194.4,-331.8,-725.1,-953.7,-2741.7,-5649.6,-685.8,-1229.7,-1041.3,-428.7,-323.7,-627.9,-16.2,-4.8,-968.7,-633.9,-7.5,-322.8,-2344.8,-671.1,0,1188,0,97,0,
0.6633,-299.1,-226.8,-231.6,-260.7,194.7,-337.2,-733.2,-954.3,-2445.3,-5650.2,-695.7,-1242.0,-1042.2,-438.0,-326.7,-629.1,-16.8,-5.1,-989.7,-647.7,-7.5,-327.6,-2339.7,-626.1,0,1194,0,98,0,
0.6667,-297.0,-223.5,-245.7,-267.9,184.2,-356.4,-726.6,-957.0,-1926.6,-5650.2,-698.7,-1242.3,-1057.8,-437.1,-332.1,-627.3,-16.2,-5.1,-981.9,-643.8,-7.5,-333.0,-2327.1,-711.3,0,1200,0,99,0,
0.6700,-300.9,-226.5,-239.7,-266.4,198.6,-348.9,-729.3,-959.4,-1852.5,-5650.8,-699.9,-1238.7,-1041.3,-429.3,-332.1,-639.6,-16.5,-5.4,-987.3,-640.2,-7.5,-331.5,-2334.0,-611.7,0,1206,0,100,0,
0.6733,-302.4,-230.7,-232.8,-261.6,212.7,-363.9,-736.5,-957.9,-2000.7,-5652.0,-684.9,-1238.1,-1047.6,-433.2,-328.2,-641.1,-16.2,-4.8,-968.7,-650.1,-7.2,-325.8,-2343.0,-616.8,0,1212,0,101,0,
0.6767,-308.4,-228.6,-235.5,-261.3,224.7,-352.2,-737.1,-960.3,-2445.3,-5650.2,-690.6,-1240.5,-1062.6,-442.8,-334.2,-639.9,-16.8,-5.1,-991.2,-652.5,-7.8,-336.6,-2350.5,-636.9,0,1218,0,102,0,
0.6800,-306.0,-231.6,-231.9,-267.9,145.8,-350.1,-734.1,-962.7,-2667.6,-5649.9,-678.9,-1227.6,-1030.5,-435.0,-325.8,-633.9,-16.5,-4.8,-976.2,-621.6,-7.5,-316.8,-2343.3,-638.4,0,1224,0,103,0,
0.6833,-305.1,-230.4,-237.3,-262.2,190.8,-350.7,-732.3,-960.3,-2519.4,-5650.2,-686.4,-1233.9,-1042.2,-442.2,-327.6,-632.7,-16.5,-5.4,-986.1,-633.6,-7.8,-323.1,-2342.4,-636.0,0,1230,0,104,0,
0.6867,-303.6,-230.7,-239.1,-265.5,184.8,-335.4,-730.5,-959.1,-1926.6,-5650.8,-691.8,-1242.0,-1041.0,-443.7,-329.1,-634.2,-16.5,-5.1,-983.4,-653.7,-7.5,-335.4,-2342.7,-682.5,0,1236,0,105,0,
0.6900,-305.1,-236.7,-238.2,-263.4,195.3,-346.5,-736.5,-962.1,-1852.5,-5651.7,-697.8,-1245.3,-1046.7,-438.6,-329.1,-634.8,-16.2,-5.1,-988.5,-647.1,-7.5,-338.1,-2343.0,-654.0,0,1242,0,106,0,
0.6933,-299.7,-234.3,-237.6,-268.5,186.0,-351.6,-735.6,-962.1,-2000.7,-5651.7,-692.4,-1239.9,-1050.3,-440.4,-330.3,-640.5,-16.5,-5.4,-988.2,-641.7,-7.5,-334.5,-2349.0,-642.3,0,1248,0,107,0,
0.6967,-301.5,-234.9,-242.1,-259.8,196.2,-347.1,-737.1,-959.7,-2519.4,-5649.6,-696.3,-1243.8,-1052.7,-444.0,-332.4,-641.7,-16.2,-5.1,-994.2,-641.4,-7.5,-336.3,-2352.0,-675.3,0,1254,0,108,0,
0.7000,-299.7,-229.2,-240.3,-269.7,173.7,-362.1,-737.7,-966.3,-2741.7,-5650.5,-701.1,-1252.2,-1056.9,-460.5,-333.0,-648.0,-16.5,-5.1,-995.7,-663.0,-7.5,-339.9,-2355.3,-660.0,0,1260,0,109,0,
0.7033,-305.4,-239.7,-251.1,-271.2,171.3,-384.0,-752.1,-975.0,-2519.4,-5650.5,-703.8,-1247.7,-1059.6,-441.9,-338.7,-652.5,-16.2,-5.4,-1007.7,-639.6,-7.8,-342.6,-2359.8,-651.9,0,1266,0,110,0,
0.7067,-306.6,-244.8,-255.0,-275.4,174.6,-343.8,-740.7,-974.4,-1926.6,-5651.1,-708.0,-1256.4,-1068.9,-446.7,-342.3,-656.4,-16.2,-4.8,-1001.4,-657.9,-7.2,-351.9,-2356.2,-668.7,0,1272,0,111,0,
0.7100,-301.2,-227.7,-247.8,-266.1,191.1,-346.8,-744.0,-967.8,-1704.3,-5652.0,-698.1,-1247.4,-1068.6,-441.6,-335.7,-650.7,-16.2,-4.8,-997.5,-645.9,-7.2,-334.8,-2365.8,-646.5,0,1278,0,112,0,
0.7133,-306.6,-242.4,-248.4,-272.1,167.1,-374.4,-744.6,-974.7,-2000.7,-5650.5,-702.9,-1251.6,-1051.5,-447.9,-333.3,-648.0,-16.2,-5.1,-992.1,-654.3,-7.5,-335.7,-2365.5,-619.5,0,1284,0,113,0,
0.7167,-312.6,-252.6,-253.2,-272.7,177.0,-384.6,-745.2,-979.2,-2445.3,-5650.2,-702.0,-1244.4,-1051.5,-447.3,-336.0,-657.0,-16.2,-5.1,-999.3,-631.8,-7.2,-341.4,-2363.4,-642.3,0,1290,0,114,0,
0.7200,-312.6,-246.0,-254.4,-277.2,176.4,-374.1,-744.6,-975.9,-2741.7,-5650.8,-701.1,-1250.7,-1054.5,-448.8,-337.2,-653.4,-16.5,-5.1,-994.2,-652.8,-7.5,-341.4,-2356.5,-654.0,0,1296,0,115,0,
0.7233,-309.9,-239.1,-242.7,-272.4,181.5,-365.1,-745.8,-968.4,-2593.5,-5651.4,-705.0,-1251.9,-1058.1,-454.2,-345.0,-657.0,-16.2,-5.4,-1007.1,-647.4,-7.5,-352.5,-2367.9,-672.6,0,1302,0,116,0,
0.7267,-311.7,-249.3,-255.6,-279.6,164.4,-376.8,-741.9,-974.4,-1852.5,-5651.4,-706.5,-1259.4,-1054.8,-450.0,-338.1,-652.5,-16.5,-5.1,-997.2,-657.6,-7.2,-343.2,-2363.1,-655.2,0,1308,0,117,0,
0.7300,-310.5,-242.1,-256.5,-276.9,172.5,-356.7,-738.9,-966.3,-1778.4,-5651.1,-705.9,-1253.4,-1050.9,-448.5,-341.4,-646.2,-16.2,-5.1,-996.6,-661.8,-7.5,-345.3,-2352.0,-674.1,0,1314,0,118,0,
0.7333,-313.8,-243.3,-252.3,-276.9,197.1,-369.3,-744.0,-972.9,-1778.4,-5649.6,-716.7,-1264.8,-1052.7,-463.2,-348.3,-651.6,-16.5,-4.8,-1004.7,-674.1,-7.5,-359.4,-2355.3,-675.9,0,1320,0,119,0,
0.7367,-315.9,-242.7,-255.0,-280.5,149.1,-379.8,-743.7,-976.2,-2445.3,-5650.5,-711.6,-1255.2,-1052.7,-459.0,-346.2,-648.6,-16.5,-4.8,-1003.8,-653.7,-7.8,-341.7,-2355.9,-654.6,0,1326,0,120,0,
0.7400,-311.7,-242.1,-242.7,-278.1,164.7,-369.6,-744.6,-971.4,-2741.7,-5650.8,-705.3,-1254.9,-1060.5,-452.1,-344.7,-650.7,-16.5,-5.1,-997.2,-667.2,-7.2,-342.3,-2358.9,-665.4,0,1332,0,121,0,
0.7433,-304.8,-238.5,-230.4,-264.9,206.7,-356.1,-737.4,-962.4,-2593.5,-5651.4,-708.6,-1252.2,-1049.7,-468.9,-345.0,-650.4,-16.2,-4.8,-989.1,-665.4,-7.8,-351.9,-2355.9,-681.9,0,1338,0,122,0,
0.7467,-308.4,-243.3,-243.6,-270.9,200.4,-331.8,-735.3,-963.9,-1926.6,-5651.7,-711.9,-1263.6,-1063.8,-448.5,-348.6,-652.2,-15.9,-5.1,-1005.6,-681.9,-7.2,-368.4,-2361.9,-686.7,0,1344,0,123,0,
0.7500,-300.6,-226.2,-237.0,-281.1,131.4,-396.6,-740.7,-972.0,-1630.2,-5649.9,-686.7,-1241.7,-1047.9,-442.2,-331.5,-642.6,-16.2,-5.1,-983.7,-645.0,-7.5,-331.8,-2348.7,-623.4,0,1350,0,124,0,
0.7533,-305.1,-252.6,-250.5,-270.0,209.1,-351.0,-737.4,-965.4,-2000.7,-5649.9,-705.0,-1260.6,-1065.6,-457.8,-329.1,-657.9,-16.2,-4.8,-1003.2,-675.3,-7.2,-370.5,-2368.8,-753.6,0,1356,0,125,0,
0.7567,-300.9,-258.6,-267.3,-297.6,154.2,-377.4,-748.5,-988.5,-2371.2,-5650.5,-723.3,-1278.6,-1078.2,-442.2,-267.0,-662.1,-16.5,-4.8,-1020.6,-681.6,-7.5,-383.1,-2371.2,-695.1,0,1362,0,126,0,
0.7600,-306.6,-267.3,-275.4,-305.7,129.9,-405.0,-758.1,-996.6,-2889.9,-5650.8,-738.3,-1282.8,-1088.7,-453.6,-293.1,-660.6,-16.5,-5.1,-1037.7,-679.8,-7.2,-393.0,-2382.3,-680.4,0,1368,0,127,0,
0.7633,-314.7,-243.9,-256.8,-281.7,150.6,-356.4,-728.4,-978.9,-2445.3,-5651.1,-714.9,-1262.4,-1063.8,-468.6,-385.2,-604.5,-16.5,-5.1,-1001.7,-676.5,-7.5,-353.7,-2337.6,-650.4,0,1374,0,128,0,
0.7667,-313.5,-239.4,-239.7,-264.3,195.6,-357.0,-722.4,-962.7,-2000.7,-5652.0,-683.7,-1241.4,-1063.8,-456.3,-377.1,-577.2,-16.2,-5.1,-988.2,-643.2,-7.5,-338.1,-2326.8,-600.6,0,1380,0,129,0,
0.7700,-313.8,-226.5,-244.8,-275.7,167.7,-374.7,-732.9,-972.9,-1704.3,-5650.2,-697.2,-1251.9,-1059.9,-465.9,-360.0,-620.4,-16.5,-5.1,-1011.9,-666.0,-7.5,-347.7,-2344.8,-632.4,0,1386,0,130,0,
0.7733,-314.4,-246.0,-249.6,-271.2,187.8,-351.9,-732.6,-971.7,-1926.6,-5650.5,-690.0,-1245.9,-1044.3,-450.6,-357.6,-654.0,-16.5,-4.8,-984.6,-656.4,-7.2,-345.3,-2358.0,-660.3,0,1392,0,131,0,
0.7767,-317.1,-242.4,-250.8,-274.2,186.0,-365.1,-745.8,-975.3,-2445.3,-5650.8,-699.6,-1251.9,-1064.4,-470.1,-344.4,-643.8,-16.5,-5.1,-996.0,-662.4,-7.5,-352.2,-2358.9,-653.1,0,1398,0,132,0,
0.7800,-313.5,-252.3,-258.3,-280.5,177.3,-385.8,-755.1,-982.8,-2815.8,-5651.1,-713.4,-1264.2,-1075.2,-447.6,-321.0,-652.2,-16.2,-5.4,-1018.2,-669.6,-7.5,-371.7,-2366.7,-672.0,0,1404,0,133,0,
0.7833,-316.2,-242.4,-255.3,-275.4,177.6,-367.8,-744.9,-972.9,-2667.6,-5651.4,-718.5,-1278.3,-1071.6,-469.8,-355.2,-650.1,-16.5,-5.1,-1008.3,-709.5,-7.2,-376.2,-2357.1,-684.3,0,1410,0,134,0,
0.7867,-315.9,-246.9,-254.4,-270.0,169.5,-366.6,-734.7,-971.4,-2074.8,-5650.5,-707.4,-1264.2,-1045.2,-456.0,-353.7,-646.2,-15.9,-5.4,-999.3,-664.2,-7.5,-341.1,-2339.7,-639.0,0,1416,0,135,0,
0.7900,-315.9,-235.8,-240.9,-254.7,189.0,-346.2,-733.8,-972.3,-1704.3,-5649.6,-687.0,-1241.1,-1050.6,-462.9,-356.7,-646.5,-16.5,-5.1,-969.9,-640.2,-7.8,-332.4,-2347.8,-657.9,0,1422,0,136,0,
0.7933,-315.3,-250.8,-258.3,-277.2,191.4,-362.4,-744.3,-980.4,-2074.8,-5650.5,-708.9,-1260.9,-1065.9,-460.2,-300.9,-660.9,-16.2,-5.4,-995.1,-663.9,-7.8,-376.8,-2362.2,-664.5,0,1428,0,137,0,
0.7967,-315.3,-259.5,-277.8,-297.9,151.5,-361.5,-750.6,-985.5,-2593.5,-5651.1,-727.2,-1290.0,-1081.5,-457.2,-320.1,-664.5,-16.2,-4.5,-1024.2,-710.7,-7.5,-394.8,-2379.9,-729.3,0,1434,0,138,0,
0.8000,-309.0,-234.6,-241.5,-263.4,185.4,-342.6,-738.3,-967.2,-2667.6,-5651.7,-681.0,-1239.3,-1059.6,-451.5,-375.6,-645.9,-16.2,-5.1,-982.2,-648.0,-7.5,-346.5,-2347.5,-640.8,0,1440,0,139,0,
0.8033,-304.8,-218.7,-229.5,-250.8,196.2,-391.8,-740.7,-962.7,-2593.5,-5650.5,-659.7,-1213.5,-1034.4,-448.8,-357.3,-640.5,-16.5,-5.1,-961.2,-627.6,-7.2,-324.6,-2332.5,-608.4,0,1446,0,140,0,
0.8067,-305.4,-237.0,-247.5,-266.4,183.0,-364.5,-739.5,-972.9,-2148.9,-5650.5,-688.5,-1241.7,-1055.4,-450.9,-342.3,-655.5,-16.5,-5.4,-986.1,-657.3,-7.2,-360.6,-2351.7,-707.7,0,1452,0,141,0,
0.8100,-305.4,-231.3,-243.9,-249.9,246.6,-316.2,-732.3,-955.2,-1704.3,-5650.5,-684.6,-1237.2,-1056.6,-457.8,-346.2,-662.4,-16.2,-5.1,-983.4,-650.4,-7.2,-360.6,-2358.9,-684.9,0,1458,0,142,0,
0.8133,-301.8,-224.1,-234.3,-251.4,207.9,-379.2,-743.4,-961.5,-1852.5,-5650.8,-661.2,-1218.3,-1049.1,-447.0,-340.5,-651.3,-16.5,-5.4,-964.8,-633.0,-7.2,-341.1,-2343.6,-586.5,0,1464,0,143,0,
0.8167,-305.7,-222.6,-232.5,-249.6,210.9,-354.3,-735.9,-956.7,-2371.2,-5651.1,-674.1,-1223.4,-1051.8,-446.1,-348.3,-644.7,-16.5,-4.8,-982.5,-655.5,-7.2,-334.2,-2343.3,-628.2,0,1470,0,144,0,
0.8200,-303.3,-225.9,-235.8,-260.1,142.8,-369.9,-736.2,-970.2,-2667.6,-5650.2,-661.5,-1207.5,-1058.7,-450.6,-338.7,-642.6,-16.8,-4.8,-972.6,-623.4,-7.5,-340.5,-2334.0,-621.3,0,1476,0,145,0,
0.8233,-301.5,-222.9,-230.1,-248.4,201.0,-350.4,-732.9,-962.4,-2371.2,-5650.2,-648.9,-1210.2,-1055.7,-454.2,-347.7,-646.5,-16.2,-5.1,-963.0,-644.4,-7.5,-343.5,-2344.5,-663.6,0,1482,0,146,0,
0.8267,-294.9,-218.4,-230.4,-247.5,193.8,-346.8,-729.9,-960.9,-2074.8,-5651.7,-658.8,-1203.9,-1049.4,-455.4,-345.6,-645.9,-16.5,-5.4,-966.9,-631.8,-7.2,-351.0,-2349.6,-677.4,0,1488,0,147,0,
0.8300,-300.6,-227.4,-228.9,-241.5,223.5,-309.6,-731.4,-953.1,-1778.4,-5651.4,-660.9,-1204.2,-1028.4,-453.6,-348.3,-648.6,-16.2,-5.4,-967.8,-614.4,-7.5,-360.0,-2355.0,-617.4,0,1494,0,148,0,
0.8333,-300.0,-228.6,-233.1,-253.2,188.7,-382.2,-741.6,-971.7,-1852.5,-5651.1,-653.7,-1205.1,-1044.9,-446.7,-315.6,-649.2,-16.5,-5.1,-971.4,-637.2,-7.5,-349.2,-2354.1,-613.8,0,1500,0,149,0,
0.8367,-306.6,-241.5,-248.1,-266.1,171.3,-385.2,-747.0,-977.4,-2297.1,-5650.5,-658.5,-1218.6,-1053.9,-449.1,-319.5,-655.2,-16.5,-5.4,-979.8,-654.6,-6.9,-370.5,-2376.0,-651.9,0,1506,0,150,0,
0.8400,-304.5,-221.1,-216.6,-235.5,212.4,-352.8,-731.1,-960.3,-2667.6,-5650.8,-635.4,-1190.4,-1050.3,-465.6,-359.7,-639.3,-16.2,-4.8,-964.2,-631.2,-7.5,-351.3,-2354.7,-615.3,0,1512,0,151,0,
0.8433,-303.6,-212.7,-219.6,-235.8,204.3,-346.8,-725.1,-955.8,-2519.4,-5651.1,-633.9,-1182.3,-1028.4,-462.0,-357.0,-635.7,-16.2,-5.1,-948.6,-609.9,-7.5,-330.6,-2357.4,-599.1,0,1518,0,152,0,
0.8467,-308.4,-220.8,-219.6,-235.8,225.3,-347.1,-733.5,-964.5,-2000.7,-5650.2,-628.2,-1185.3,-1042.5,-478.2,-353.4,-642.0,-16.2,-5.4,-938.7,-627.0,-7.5,-344.4,-2364.6,-636.3,0,1524,0,153,0,
0.8500,-311.7,-232.8,-235.2,-250.5,185.1,-335.1,-737.7,-969.0,-1778.4,-5650.8,-644.7,-1189.5,-1050.9,-447.9,-344.1,-641.7,-16.2,-4.8,-963.3,-612.0,-7.5,-357.6,-2380.2,-642.3,0,1530,0,154,0,
0.8533,-309.6,-237.9,-233.7,-257.4,181.8,-381.0,-744.3,-974.1,-1852.5,-5650.5,-648.3,-1202.1,-1052.4,-458.1,-339.6,-647.1,-16.2,-5.4,-957.3,-642.0,-7.5,-355.2,-2384.4,-625.8,0,1536,0,155,0,
0.8567,-311.7,-238.5,-237.6,-258.6,195.0,-356.7,-748.5,-973.5,-2371.2,-5651.1,-650.7,-1195.8,-1046.4,-458.4,-347.4,-663.6,-16.2,-5.1,-967.5,-624.6,-7.5,-369.6,-2392.2,-642.6,0,1542,0,156,0,
0.8600,-313.8,-238.5,-242.1,-264.6,180.0,-383.7,-745.8,-974.7,-2593.5,-5650.8,-652.8,-1203.9,-1049.1,-453.3,-337.2,-641.4,-16.2,-4.8,-969.9,-640.5,-7.5,-345.3,-2384.7,-615.9,0,1548,0,157,0,
0.8633,-309.9,-241.8,-252.0,-264.6,186.0,-366.6,-738.6,-969.9,-2593.5,-5650.2,-660.0,-1208.1,-1056.6,-457.8,-355.5,-642.3,-16.5,-5.1,-957.0,-635.4,-7.5,-362.1,-2380.5,-635.7,0,1554,0,158,0,
0.8667,-314.4,-239.4,-240.6,-256.8,198.3,-368.7,-742.2,-967.5,-1852.5,-5650.2,-665.7,-1212.6,-1055.1,-457.2,-351.0,-651.3,-16.2,-5.1,-963.0,-646.8,-7.5,-359.4,-2382.9,-642.0,0,1560,0,159,0,
0.8700,-313.5,-237.9,-238.8,-258.0,183.9,-338.7,-742.8,-969.0,-1852.5,-5650.8,-668.1,-1214.1,-1068.0,-458.1,-357.9,-662.4,-16.5,-5.4,-957.9,-639.6,-7.2,-363.9,-2395.8,-651.3,0,1566,0,160,0,
0.8733,-312.3,-228.6,-228.0,-254.1,195.3,-367.5,-746.7,-965.1,-1926.6,-5651.4,-649.8,-1204.8,-1058.7,-477.9,-352.8,-659.4,-16.5,-5.1,-949.2,-634.8,-7.2,-357.3,-2382.3,-634.2,0,1572,0,161,0,
0.8767,-320.1,-246.6,-240.9,-258.0,189.9,-366.6,-747.6,-970.5,-2297.1,-5650.5,-659.1,-1210.2,-1065.0,-459.3,-352.5,-662.7,-16.8,-4.8,-960.0,-628.2,-7.5,-355.8,-2390.4,-622.2,0,1578,0,162,0,
0.8800,-317.4,-238.2,-238.5,-257.4,191.7,-375.6,-753.0,-970.8,-2593.5,-5649.9,-655.5,-1207.2,-1050.3,-451.8,-349.5,-657.0,-16.8,-5.1,-951.3,-631.8,-7.5,-350.1,-2395.8,-618.3,0,1584,0,163,0,
0.8833,-315.3,-238.8,-236.1,-256.8,199.8,-332.1,-745.8,-970.8,-2593.5,-5650.8,-652.8,-1221.6,-1072.5,-459.0,-352.2,-668.1,-16.2,-4.8,-954.0,-635.4,-7.5,-366.0,-2406.9,-653.7,0,1590,0,164,0,
0.8867,-309.9,-234.0,-234.3,-256.8,198.9,-391.2,-760.5,-971.4,-1926.6,-5651.4,-653.1,-1210.2,-1058.1,-455.7,-345.0,-661.5,-16.2,-5.1,-958.8,-622.8,-7.8,-358.8,-2398.2,-592.5,0,1596,0,165,0,
0.8900,-311.7,-233.7,-232.5,-247.2,250.5,-360.0,-751.5,-963.3,-1630.2,-5650.5,-656.7,-1215.0,-1060.8,-455.7,-345.6,-659.1,-16.2,-4.8,-961.8,-649.2,-7.8,-359.1,-2395.5,-643.2,0,1602,0,166,0,
0.8933,-311.7,-236.4,-233.7,-251.7,207.0,-354.0,-751.2,-963.0,-1926.6,-5649.9,-663.6,-1220.7,-1050.3,-467.4,-352.5,-658.8,-16.2,-4.8,-962.7,-643.5,-7.8,-370.8,-2398.5,-631.5,0,1608,0,167,0,
0.8967,-311.1,-239.1,-242.4,-268.8,156.0,-385.2,-753.3,-970.8,-2371.2,-5650.5,-669.9,-1219.2,-1053.6,-462.6,-345.3,-650.4,-16.2,-5.1,-967.2,-637.8,-7.5,-355.8,-2386.2,-618.6,0,1614,0,168,0,
0.9000,-310.5,-239.7,-246.9,-264.9,180.3,-366.9,-748.5,-963.9,-2667.6,-5651.4,-665.7,-1218.3,-1054.2,-457.2,-335.4,-653.1,-16.5,-5.1,-971.7,-631.5,-7.5,-360.6,-2394.6,-618.6,0,1620,0,169,0,
0.9033,-311.1,-236.7,-239.4,-266.4,185.1,-375.6,-751.5,-969.6,-2519.4,-5650.5,-669.9,-1220.1,-1055.7,-447.9,-339.9,-660.6,-16.2,-4.8,-976.8,-638.4,-7.5,-360.3,-2398.5,-618.9,0,1626,0,170,0,
0.9067,-308.7,-234.9,-234.9,-255.9,186.6,-347.1,-741.6,-965.1,-2074.8,-5649.9,-667.5,-1218.9,-1036.8,-466.8,-346.2,-649.5,-16.5,-4.8,-963.6,-637.2,-7.8,-351.3,-2387.4,-624.3,0,1632,0,171,0,
0.9100,-317.7,-243.3,-244.8,-264.0,202.8,-335.7,-743.7,-972.0,-1704.3,-5650.5,-672.6,-1223.7,-1056.0,-467.7,-342.9,-648.6,-16.5,-5.1,-966.6,-645.9,-6.9,-360.0,-2397.3,-637.8,0,1638,0,172,0,
0.9133,-321.6,-252.6,-254.4,-277.5,179.7,-402.6,-757.8,-987.3,-1926.6,-5650.2,-683.4,-1237.2,-1066.8,-454.5,-326.4,-656.7,-16.2,-5.4,-983.1,-652.8,-7.2,-378.6,-2404.2,-630.9,0,1644,0,173,0,
0.9167,-316.5,-249.6,-255.3,-283.8,162.6,-385.2,-760.5,-984.3,-2445.3,-5650.8,-688.2,-1241.4,-1067.1,-464.1,-344.4,-661.5,-16.5,-5.4,-983.1,-654.9,-7.5,-375.6,-2415.0,-632.7,0,1650,0,174,0,
0.9200,-313.8,-236.1,-240.0,-259.5,192.3,-370.5,-743.7,-970.5,-2667.6,-5651.1,-673.2,-1219.8,-1056.0,-459.6,-358.8,-644.1,-16.2,-5.1,-974.7,-637.2,-7.8,-360.3,-2392.5,-619.2,0,1656,0,175,0,
0.9233,-317.7,-223.8,-238.2,-261.0,179.1,-381.6,-750.3,-972.6,-2593.5,-5650.5,-672.0,-1218.3,-1062.3,-459.6,-359.4,-655.5,-16.8,-5.1,-972.3,-633.3,-7.2,-356.7,-2406.0,-616.8,0,1662,0,176,0,
0.9267,-316.8,-241.8,-246.0,-262.2,186.6,-364.2,-753.6,-979.8,-2000.7,-5651.7,-677.7,-1225.8,-1048.2,-455.1,-340.8,-660.9,-15.9,-5.1,-975.0,-647.7,-7.2,-366.3,-2402.7,-627.0,0,1668,0,177,0,
0.9300,-315.6,-243.0,-247.8,-259.2,200.4,-369.0,-751.2,-972.9,-1778.4,-5650.5,-674.7,-1223.7,-1049.7,-457.8,-342.9,-660.3,-16.2,-5.1,-975.6,-644.1,-7.8,-364.8,-2401.5,-637.8,0,1674,0,178,0,
0.9333,-314.4,-237.9,-244.5,-255.3,213.0,-317.1,-731.4,-961.8,-1852.5,-5651.1,-672.6,-1226.7,-1049.4,-464.4,-367.2,-643.2,-16.5,-5.1,-976.5,-646.5,-7.5,-374.1,-2391.9,-662.4,0,1680,0,179,0,
0.9367,-317.1,-243.9,-250.5,-272.1,169.8,-386.7,-745.5,-978.9,-2371.2,-5650.2,-674.1,-1228.8,-1049.1,-463.8,-351.9,-650.1,-16.5,-5.1,-976.2,-658.8,-7.5,-357.6,-2389.2,-590.7,0,1686,0,180,0,
0.9400,-323.4,-252.0,-260.1,-281.7,177.3,-376.8,-754.2,-990.6,-2593.5,-5651.1,-689.1,-1248.3,-1065.3,-471.6,-349.8,-672.9,-16.5,-5.4,-989.4,-674.1,-7.5,-377.1,-2412.3,-646.8,0,1692,0,181,0,
0.9433,-328.8,-258.6,-261.9,-282.3,172.2,-394.5,-753.3,-991.2,-2593.5,-5651.1,-691.2,-1242.3,-1052.1,-480.9,-358.5,-661.8,-16.5,-4.5,-993.9,-663.3,-7.2,-375.6,-2409.3,-620.1,0,1698,0,182,0,
0.9467,-327.0,-246.6,-255.3,-278.1,178.5,-382.2,-747.9,-987.9,-2000.7,-5650.5,-687.3,-1241.7,-1056.6,-474.3,-362.4,-660.6,-16.5,-5.1,-989.1,-663.9,-7.5,-370.8,-2413.2,-638.4,0,1704,0,183,0,
0.9500,-320.7,-243.6,-246.9,-267.3,195.0,-357.9,-743.1,-976.8,-1704.3,-5650.2,-678.9,-1227.9,-1039.2,-465.6,-365.7,-663.3,-16.5,-4.8,-979.2,-651.0,-7.5,-363.3,-2395.5,-641.1,0,1710,0,184,0,
0.9533,-322.8,-244.8,-251.1,-269.7,209.4,-375.9,-748.5,-984.6,-1704.3,-5651.4,-675.3,-1232.1,-1044.6,-469.8,-353.1,-663.0,-16.5,-5.1,-979.5,-663.0,-7.8,-368.7,-2407.2,-640.8,0,1716,0,185,0,
0.9567,-313.8,-238.5,-246.0,-267.9,179.4,-373.8,-753.9,-984.0,-2371.2,-5650.5,-672.9,-1230.6,-1036.8,-465.3,-356.4,-663.0,-16.2,-4.8,-983.7,-654.9,-7.5,-357.0,-2403.3,-591.3,0,1722,0,186,0,
0.9600,-316.5,-237.3,-241.8,-267.3,172.8,-373.8,-746.1,-986.7,-2593.5,-5652.0,-673.2,-1224.9,-1038.0,-474.9,-352.2,-657.6,-16.2,-5.1,-979.5,-649.2,-7.5,-356.7,-2398.8,-609.6,0,1728,0,187,0,
0.9633,-320.4,-248.1,-253.2,-273.9,175.8,-381.6,-750.0,-992.4,-2519.4,-5650.5,-683.1,-1231.5,-1049.1,-458.4,-346.2,-652.2,-16.2,-5.1,-991.8,-659.4,-7.5,-360.3,-2401.8,-616.5,0,1734,0,188,0,
0.9667,-315.0,-244.5,-252.3,-270.9,183.3,-380.4,-743.4,-989.4,-2000.7,-5651.1,-677.7,-1229.4,-1047.0,-461.4,-335.4,-660.3,-16.8,-5.1,-982.5,-657.6,-7.5,-362.4,-2401.2,-622.2,0,1740,0,189,0,
0.9700,-317.1,-249.3,-252.6,-276.6,177.3,-382.2,-751.2,-989.4,-1778.4,-5650.8,-688.8,-1238.1,-1059.6,-456.9,-337.2,-671.4,-16.2,-5.4,-991.5,-668.4,-7.8,-372.0,-2411.4,-630.9,0,1746,0,190,0,
0.9733,-317.4,-248.4,-255.6,-276.0,178.5,-382.8,-748.2,-986.7,-1852.5,-5651.1,-693.6,-1242.6,-1057.2,-456.0,-342.6,-663.9,-16.5,-4.8,-1000.8,-670.5,-7.5,-371.1,-2404.2,-626.7,0,1752,0,191,0,
0.9767,-316.2,-243.0,-248.7,-272.1,190.2,-370.8,-740.1,-980.1,-2371.2,-5650.8,-685.5,-1234.2,-1049.4,-448.2,-337.5,-652.8,-16.2,-5.1,-991.8,-654.6,-7.8,-360.0,-2396.7,-617.7,0,1758,0,192,0,
0.9800,-316.8,-233.4,-234.6,-259.5,202.5,-361.5,-734.7,-978.9,-2593.5,-5651.1,-654.6,-1202.7,-1041.0,-450.3,-329.7,-647.1,-16.8,-5.4,-965.4,-627.3,-7.8,-342.6,-2391.0,-606.0,0,1764,0,193,0,
0.9833,-315.3,-236.4,-237.6,-259.5,199.8,-361.2,-732.0,-980.4,-2519.4,-5650.2,-658.8,-1208.1,-1043.7,-452.7,-346.5,-647.4,-16.8,-4.8,-969.6,-629.7,-7.2,-343.5,-2387.1,-609.6,0,1770,0,194,0,
0.9867,-309.6,-232.8,-233.1,-252.6,204.3,-358.2,-732.3,-966.6,-2074.8,-5650.5,-655.8,-1206.3,-1043.4,-446.1,-341.4,-638.4,-16.2,-5.1,-969.9,-629.4,-7.5,-349.5,-2382.6,-607.8,0,1776,0,195,0,
0.9900,-307.2,-229.8,-228.6,-254.1,203.7,-357.6,-732.9,-964.8,-1630.2,-5651.4,-654.9,-1206.0,-1044.0,-453.9,-341.1,-645.9,-16.5,-5.1,-972.3,-633.0,-7.5,-351.9,-2387.1,-613.5,0,1782,0,196,0,
0.9933,-306.3,-226.5,-229.2,-252.9,204.0,-360.0,-731.7,-966.9,-1852.5,-5651.1,-645.6,-1195.5,-1038.0,-446.7,-335.4,-645.6,-16.2,-5.4,-963.6,-624.9,-7.2,-352.5,-2391.0,-613.8,0,1788,0,197,0,
0.9967,-305.4,-231.9,-235.2,-252.3,203.7,-356.1,-730.8,-970.5,-2297.1,-5649.9,-643.2,-1190.7,-1036.8,-444.9,-333.6,-646.8,-15.9,-5.1,-966.3,-620.1,-7.5,-350.4,-2387.4,-615.9,0,1794,0,198,0,
1.0000,-309.9,-236.7,-236.4,-254.1,197.4,-359.1,-732.6,-970.2,-2667.6,-5650.5,-651.3,-1194.3,-1039.8,-446.7,-334.2,-648.0,-16.5,-4.8,-972.9,-624.3,-7.5,-349.8,-2384.7,-613.8,0,1800,0,199,0,
1.0033,-308.7,-235.8,-233.7,-257.7,206.1,-352.8,-728.4,-971.7,-2445.3,-5651.4,-641.4,-1185.0,-1035.6,-446.7,-328.2,-637.2,-16.5,-4.8,-966.9,-617.4,-7.5,-341.1,-2382.0,-611.1,0,1806,0,200,0,
1.0067,-303.3,-231.6,-229.8,-255.3,208.2,-353.1,-725.7,-972.6,-2074.8,-5651.1,-639.0,-1188.6,-1036.8,-444.0,-332.7,-644.4,-16.5,-5.1,-969.0,-620.7,-7.5,-343.2,-2381.7,-611.7,0,1812,0,201,0,
1.0100,-307.2,-242.1,-232.8,-259.8,203.1,-357.9,-729.9,-978.3,-1704.3,-5651.1,-649.5,-1193.7,-1040.1,-443.1,-329.1,-645.6,-16.5,-4.8,-979.8,-624.0,-7.5,-347.1,-2387.1,-615.3,0,1818,0,202,0,
1.0133,-311.1,-240.9,-234.6,-261.9,202.2,-359.7,-732.9,-981.6,-1926.6,-5651.4,-642.3,-1186.8,-1040.7,-452.1,-328.5,-646.2,-16.5,-5.1,-973.8,-618.6,-7.2,-346.2,-2386.8,-615.0,0,1824,0,203,0,
1.0167,-314.4,-246.0,-238.2,-263.1,200.4,-366.0,-735.3,-986.4,-2297.1,-5650.8,-646.2,-1185.0,-1041.3,-453.6,-326.1,-643.8,-16.2,-5.4,-974.4,-619.5,-7.5,-350.7,-2386.8,-621.3,0,1830,0,204,0,
1.0200,-312.3,-240.9,-238.2,-265.8,198.0,-366.0,-735.0,-982.8,-2667.6,-5651.7,-645.9,-1188.0,-1048.8,-453.6,-340.8,-646.5,-16.5,-5.1,-977.7,-624.0,-7.5,-347.1,-2387.4,-622.5,0,1836,0,205,0,
1.0233,-314.4,-245.7,-237.0,-261.6,200.1,-362.7,-732.3,-980.4,-2519.4,-5650.5,-643.8,-1186.2,-1045.5,-456.3,-338.4,-645.3,-16.5,-5.1,-977.4,-621.9,-7.5,-352.2,-2386.8,-618.0,0,1842,0,206,0,
1.0267,-307.8,-240.6,-233.4,-259.5,203.1,-365.7,-730.8,-973.5,-2074.8,-5651.1,-634.5,-1182.0,-1041.6,-448.2,-324.9,-636.9,-16.5,-5.1,-968.7,-616.8,-7.5,-353.7,-2386.2,-617.1,0,1848,0,207,0,
1.0300,-314.1,-233.7,-227.1,-255.9,204.0,-361.2,-729.3,-970.8,-1852.5,-5650.8,-631.2,-1176.9,-1039.5,-478.2,-335.1,-629.7,-15.9,-4.2,-966.0,-613.8,-7.5,-357.3,-2390.1,-619.2,0,1854,0,208,0,
1.0333,-314.4,-243.0,-233.7,-258.3,192.3,-368.1,-732.0,-975.9,-1852.5,-5651.4,-636.3,-1185.3,-1045.8,-457.8,-330.3,-629.1,-16.2,-5.1,-971.7,-625.8,-7.5,-362.1,-2403.0,-626.7,0,1860,0,209,0,
1.0367,-319.5,-236.4,-234.0,-263.7,195.9,-367.2,-735.9,-981.6,-2148.9,-5650.8,-641.1,-1188.3,-1058.4,-469.5,-329.7,-646.8,-16.5,-4.8,-978.6,-620.4,-7.5,-373.2,-2406.9,-630.3,0,1866,0,210,0,
1.0400,-312.3,-240.9,-237.3,-261.0,198.0,-365.4,-740.4,-975.3,-2593.5,-5650.8,-633.0,-1185.0,-1046.1,-451.5,-342.9,-636.0,-16.5,-4.8,-971.7,-619.8,-7.2,-363.6,-2387.7,-626.1,0,1872,0,211,0,
1.0433,-316.2,-241.5,-230.4,-256.5,206.7,-360.0,-738.0,-972.9,-2519.4,-5651.4,-638.4,-1180.2,-1052.1,-456.9,-326.4,-648.0,-16.2,-5.1,-969.3,-612.0,-7.2,-355.2,-2396.1,-628.2,0,1878,0,212,0,
1.0467,-309.6,-234.0,-227.1,-249.3,202.2,-366.9,-741.9,-970.8,-2000.7,-5651.7,-637.8,-1182.3,-1050.3,-453.9,-323.7,-659.1,-16.2,-5.1,-978.0,-608.7,-7.5,-357.9,-2403.0,-623.4,0,1884,0,213,0,
1.0500,-304.8,-215.7,-216.0,-236.4,213.9,-354.3,-733.8,-957.0,-1704.3,-5651.1,-619.8,-1164.9,-1047.9,-454.2,-354.9,-648.3,-16.5,-5.4,-960.0,-588.9,-7.5,-347.1,-2390.1,-614.7,0,1890,0,214,0,
1.0533,-298.8,-217.8,-206.7,-228.0,213.3,-348.6,-733.8,-952.5,-1778.4,-5650.2,-616.8,-1165.5,-1023.9,-443.7,-321.0,-651.9,-16.2,-4.8,-969.3,-590.7,-7.5,-342.9,-2386.2,-606.3,0,1896,0,215,0,
1.0567,-306.6,-231.9,-226.2,-243.0,204.9,-361.5,-744.6,-961.8,-2297.1,-5651.1,-628.2,-1175.1,-1039.2,-443.7,-323.7,-663.0,-15.9,-5.1,-975.0,-596.4,-7.8,-353.7,-2393.4,-620.4,0,1902,0,216,0,
1.0600,-307.5,-229.5,-222.9,-239.1,214.2,-354.3,-741.3,-964.8,-2519.4,-5651.4,-617.7,-1164.3,-1033.2,-450.9,-353.7,-665.4,-16.8,-5.1,-966.3,-585.3,-7.8,-344.1,-2389.5,-623.1,0,1908,0,217,0,
1.0633,-313.8,-229.8,-221.7,-237.0,224.1,-352.8,-739.5,-963.0,-2445.3,-5650.8,-618.0,-1168.8,-1038.0,-457.2,-345.3,-650.4,-16.2,-4.8,-972.9,-583.8,-7.2,-347.7,-2380.2,-609.6,0,1914,0,218,0,
1.0667,-309.6,-229.2,-225.9,-239.1,215.1,-344.1,-732.6,-962.4,-2000.7,-5650.8,-620.1,-1176.9,-1027.5,-473.4,-348.9,-660.3,-16.5,-5.1,-977.1,-591.0,-7.5,-346.5,-2380.8,-628.2,0,1920,0,219,0,
1.0700,-312.9,-233.4,-228.3,-246.3,200.1,-348.0,-741.9,-966.6,-1630.2,-5650.8,-634.8,-1188.9,-1041.3,-448.2,-351.3,-664.8,-16.5,-4.8,-983.4,-602.7,-7.8,-357.3,-2389.5,-618.0,0,1926,0,220,0,
1.0733,-306.0,-235.8,-232.5,-252.9,187.8,-371.7,-750.3,-975.9,-1778.4,-5650.8,-634.5,-1184.4,-1043.7,-457.8,-328.8,-668.7,-16.2,-5.1,-989.1,-599.1,-7.5,-344.1,-2399.4,-615.0,0,1932,0,221,0,
1.0767,-310.8,-246.6,-241.2,-258.0,196.8,-354.6,-751.2,-976.8,-2371.2,-5651.4,-649.2,-1201.8,-1067.7,-462.0,-333.3,-667.5,-16.2,-5.1,-1002.0,-610.2,-7.5,-365.1,-2407.8,-636.6,0,1938,0,222,0,
1.0800,-309.3,-225.6,-224.4,-249.6,190.5,-369.3,-742.8,-972.3,-2741.7,-5650.8,-643.8,-1194.0,-1047.0,-456.3,-359.7,-661.5,-16.5,-5.1,-1005.3,-597.9,-7.2,-351.9,-2395.8,-610.8,0,1944,0,223,0,
1.0833,-309.6,-238.2,-241.5,-260.7,191.7,-372.0,-746.7,-973.2,-2445.3,-5651.4,-653.4,-1199.7,-1041.0,-452.7,-331.2,-670.8,-16.5,-4.8,-1011.3,-608.1,-7.2,-357.6,-2401.8,-618.3,0,1950,0,224,0,
1.0867,-309.3,-235.5,-235.5,-258.3,200.4,-360.6,-746.4,-969.0,-2074.8,-5650.8,-649.2,-1200.0,-1041.6,-456.9,-336.9,-675.6,-16.5,-5.1,-1005.0,-607.2,-7.5,-359.4,-2399.7,-624.6,0,1956,0,225,0,
1.0900,-311.4,-240.9,-249.6,-264.6,194.1,-359.7,-741.6,-975.0,-1704.3,-5651.4,-661.5,-1211.1,-1049.1,-447.6,-335.4,-639.9,-16.5,-5.1,-1020.0,-616.5,-7.5,-370.5,-2399.4,-630.6,0,1962,0,226,0,
1.0933,-318.3,-244.8,-253.5,-271.8,188.1,-366.6,-743.1,-975.9,-1852.5,-5650.5,-669.3,-1217.1,-1059.0,-466.2,-373.5,-621.3,-16.2,-5.1,-1031.4,-628.8,-7.8,-378.0,-2405.7,-633.0,0,1968,0,227,0,
1.0967,-320.4,-232.2,-235.5,-257.7,207.9,-351.3,-733.2,-964.8,-2148.9,-5651.1,-654.6,-1199.7,-1039.2,-465.3,-374.7,-623.7,-16.5,-5.1,-1013.7,-604.8,-7.8,-345.0,-2388.9,-610.2,0,1974,0,228,0,
1.1000,-315.6,-224.7,-233.1,-253.5,202.8,-350.7,-740.1,-966.0,-2519.4,-5651.4,-652.5,-1199.7,-1033.8,-448.5,-355.2,-665.1,-16.2,-5.1,-1016.1,-602.7,-7.5,-342.9,-2393.1,-612.0,0,1980,0,229,0,
1.1033,-309.0,-227.7,-234.9,-259.5,198.6,-354.3,-744.3,-967.2,-2593.5,-5652.0,-660.6,-1207.2,-1032.3,-442.5,-339.6,-681.6,-16.5,-5.1,-1017.6,-606.9,-7.8,-342.6,-2394.0,-612.6,0,1986,0,230,0,
1.1067,-306.6,-229.8,-239.1,-260.1,196.2,-353.4,-743.7,-963.6,-2074.8,-5650.8,-662.1,-1208.1,-1028.7,-447.0,-351.9,-668.1,-16.5,-4.8,-1024.2,-611.7,-7.8,-342.6,-2383.8,-615.9,0,1992,0,231,0,
1.1100,-305.7,-219.6,-229.5,-252.9,200.7,-352.5,-743.1,-964.2,-1778.4,-5650.5,-654.9,-1203.9,-1021.2,-464.7,-339.6,-669.6,-16.2,-4.8,-1019.7,-608.1,-7.5,-339.6,-2382.9,-617.1,0,1998,0,232,0,
1.1133,-310.8,-235.5,-243.0,-260.7,194.7,-360.6,-749.7,-970.8,-1852.5,-5650.8,-666.6,-1216.5,-1032.9,-442.5,-331.5,-671.1,-16.2,-5.4,-1032.9,-614.7,-7.5,-354.0,-2396.1,-629.1,0,2004,0,233,0,
1.1167,-320.4,-234.6,-245.1,-261.9,196.5,-355.5,-749.1,-973.8,-2148.9,-5651.4,-671.1,-1215.9,-1036.8,-464.1,-361.2,-681.0,-16.2,-4.5,-1032.9,-616.8,-7.8,-362.1,-2402.4,-636.6,0,2010,0,234,0,
1.1200,-314.7,-231.9,-237.0,-264.0,193.2,-364.2,-751.5,-969.3,-2445.3,-5651.1,-663.6,-1217.4,-1036.2,-453.9,-352.2,-667.2,-16.2,-5.1,-1021.5,-623.4,-7.5,-357.9,-2401.2,-625.8,0,2016,0,235,0,
1.1233,-318.6,-240.6,-248.4,-274.8,182.4,-374.4,-754.5,-980.1,-2445.3,-5650.8,-675.3,-1228.2,-1047.9,-459.6,-345.6,-673.5,-16.5,-5.1,-1046.4,-625.8,-7.5,-378.3,-2405.1,-648.9,0,2022,0,236,0,
1.1267,-316.8,-238.5,-242.7,-267.0,187.8,-365.7,-750.0,-969.3,-2000.7,-5650.5,-672.6,-1226.4,-1031.4,-456.9,-362.4,-664.8,-16.5,-5.1,-1048.2,-633.0,-7.8,-359.4,-2400.0,-614.7,0,2028,0,237,0,
1.1300,-316.5,-229.8,-240.0,-260.7,186.6,-360.9,-738.9,-967.2,-1778.4,-5651.1,-675.9,-1220.1,-1032.3,-457.8,-354.0,-650.7,-16.5,-5.1,-1049.7,-611.1,-7.5,-352.8,-2384.7,-618.3,0,2034,0,238,0,
1.1333,-313.8,-228.0,-243.6,-261.3,187.2,-364.8,-743.4,-968.1,-1852.5,-5651.1,-676.8,-1229.1,-1032.3,-450.9,-339.9,-659.4,-16.5,-4.8,-1054.8,-616.2,-7.2,-362.7,-2395.8,-621.6,0,2040,0,239,0,
1.1367,-311.4,-222.3,-243.0,-260.4,192.0,-360.0,-745.5,-965.7,-2297.1,-5651.4,-659.7,-1221.0,-1032.0,-470.7,-334.5,-677.4,-15.9,-4.8,-1045.2,-602.4,-7.2,-358.8,-2400.9,-622.8,0,2046,0,240,0,
1.1400,-313.5,-229.8,-247.5,-263.1,191.1,-357.0,-747.9,-966.3,-2741.7,-5651.4,-673.2,-1222.8,-1039.2,-456.3,-338.7,-667.5,-16.5,-5.1,-1048.8,-608.4,-7.2,-356.1,-2408.1,-621.9,0,2052,0,241,0,
1.1433,-318.9,-222.3,-234.6,-253.5,204.0,-345.0,-738.3,-953.4,-2593.5,-5652.0,-657.0,-1211.4,-1030.2,-453.3,-363.0,-662.1,-16.2,-4.8,-1039.2,-600.9,-7.5,-346.8,-2388.6,-610.2,0,2058,0,242,0,
1.1467,-317.1,-223.8,-240.6,-253.2,207.6,-303.0,-741.0,-953.4,-2148.9,-5650.2,-656.7,-1214.7,-1031.7,-457.5,-374.4,-674.7,-16.5,-4.8,-1041.3,-602.1,-7.5,-362.7,-2398.8,-668.7,0,2064,0,243,0,
1.1500,-313.8,-224.4,-246.0,-261.3,206.7,-342.3,-745.2,-966.9,-1704.3,-5650.5,-663.0,-1219.5,-1028.4,-447.3,-354.9,-672.3,-16.2,-5.1,-1044.6,-600.9,-7.5,-361.8,-2396.1,-616.8,0,2070,0,244,0,
1.1533,-317.4,-227.7,-257.4,-273.9,170.1,-411.3,-759.9,-979.5,-1778.4,-5650.5,-675.9,-1227.6,-1035.6,-446.4,-354.9,-672.0,-16.5,-4.8,-1057.2,-606.0,-7.5,-349.2,-2399.1,-605.7,0,2076,0,245,0,
1.1567,-317.1,-227.7,-247.8,-268.5,182.1,-370.8,-754.8,-976.2,-2297.1,-5651.1,-679.2,-1230.0,-1025.7,-451.8,-346.5,-684.0,-16.5,-4.8,-1066.2,-613.2,-7.8,-358.8,-2410.8,-632.1,0,2082,0,246,0,
1.1600,-312.0,-235.2,-255.0,-272.1,184.8,-376.8,-753.9,-976.5,-2593.5,-5650.8,-679.2,-1227.9,-1028.4,-445.5,-349.2,-678.6,-16.2,-5.1,-1055.1,-603.6,-7.2,-360.0,-2404.5,-636.0,0,2088,0,247,0,
1.1633,-313.5,-224.4,-241.5,-259.2,202.5,-349.5,-741.9,-962.1,-2593.5,-5650.8,-662.7,-1210.2,-1017.3,-454.8,-364.8,-660.9,-16.2,-5.1,-1044.0,-586.8,-7.5,-350.1,-2390.1,-621.6,0,2094,0,248,0,
1.1667,-316.5,-229.5,-245.1,-265.8,186.3,-354.9,-744.3,-964.8,-2074.8,-5650.5,-668.4,-1221.6,-1025.1,-463.2,-366.3,-660.9,-16.8,-5.1,-1046.4,-596.1,-7.5,-345.3,-2388.3,-619.8,0,2100,0,249,0,
1.1700,-313.5,-219.6,-239.4,-260.4,196.5,-349.8,-738.6,-962.1,-1704.3,-5651.4,-661.8,-1210.5,-1018.2,-471.0,-384.6,-656.7,-16.5,-5.1,-1040.7,-584.1,-7.5,-341.7,-2380.5,-616.8,0,2106,0,250,0,
1.1733,-315.6,-237.6,-250.5,-272.4,184.8,-357.6,-748.2,-971.7,-1926.6,-5651.4,-678.9,-1223.1,-1034.4,-446.4,-364.5,-660.3,-16.2,-5.4,-1058.7,-598.5,-7.5,-358.5,-2406.3,-641.4,0,2112,0,251,0,
1.1767,-316.8,-245.4,-264.3,-276.6,178.2,-360.6,-750.6,-972.3,-2371.2,-5650.8,-674.4,-1229.7,-1032.9,-442.5,-349.8,-666.3,-16.2,-5.1,-1061.1,-597.6,-7.5,-362.1,-2404.5,-652.2,0,2118,0,252,0,
1.1800,-324.3,-252.3,-268.5,-284.7,189.0,-357.3,-750.6,-983.1,-2741.7,-5650.8,-688.5,-1238.7,-1043.7,-461.4,-352.5,-668.7,-16.2,-5.1,-1070.4,-611.4,-7.5,-378.6,-2403.6,-671.1,0,2124,0,253,0,
1.1833,-323.1,-246.0,-257.1,-279.9,184.5,-364.8,-741.6,-977.4,-2593.5,-5651.1,-676.5,-1230.9,-1032.6,-469.8,-367.2,-654.9,-16.5,-5.1,-1063.2,-608.4,-7.5,-358.8,-2399.4,-654.3,0,2130,0,254,0,
1.1867,-319.2,-237.0,-248.4,-265.2,217.5,-358.8,-741.6,-966.0,-2000.7,-5651.4,-670.8,-1225.2,-1031.7,-454.8,-373.8,-654.3,-16.2,-5.1,-1059.9,-593.1,-7.2,-347.1,-2406.6,-606.3,0,2136,0,255,0,
1.1900,-314.7,-227.4,-241.5,-262.5,191.4,-353.7,-738.6,-964.5,-1704.3,-5651.4,-655.8,-1216.8,-1023.3,-446.4,-360.6,-669.9,-16.5,-5.4,-1056.6,-581.7,-7.5,-342.0,-2386.8,-611.7,0,2142,0,0,0,
1.1933,-322.2,-233.4,-241.2,-267.0,196.8,-344.1,-740.7,-964.2,-1926.6,-5650.8,-668.4,-1222.8,-1019.7,-454.8,-358.5,-678.6,-16.2,-5.1,-1062.3,-593.7,-7.5,-344.4,-2395.2,-627.3,0,2148,0,1,0,
1.1967,-315.3,-238.8,-257.4,-273.9,192.6,-327.0,-738.3,-971.4,-2297.1,-5651.4,-667.5,-1231.8,-1030.5,-450.9,-342.9,-676.5,-16.5,-4.8,-1069.8,-601.2,-7.8,-357.6,-2405.4,-659.4,0,2154,0,2,0,
1.2000,-315.6,-240.0,-258.3,-277.8,185.7,-377.1,-747.3,-978.0,-2593.5,-5651.1,-668.7,-1227.9,-1028.1,-444.3,-344.4,-680.7,-16.2,-5.4,-1060.2,-597.9,-7.8,-355.5,-2402.7,-614.4,0,2160,0,3,0,
1.2033,-315.9,-238.8,-256.8,-271.8,190.8,-385.5,-746.4,-973.8,-2445.3,-5650.8,-665.1,-1220.7,-1021.2,-438.9,-355.5,-678.0,-16.8,-5.1,-1063.5,-588.3,-7.5,-349.8,-2397.0,-619.2,0,2166,0,4,0,
1.2067,-318.6,-237.3,-256.2,-276.3,185.4,-359.4,-748.5,-975.0,-2000.7,-5650.8,-665.7,-1229.4,-1030.2,-439.8,-342.6,-672.9,-16.5,-5.1,-1061.1,-600.3,-7.8,-357.3,-2403.0,-636.3,0,2172,0,5,0,
1.2100,-319.5,-239.4,-268.5,-287.4,170.4,-368.4,-753.3,-984.6,-1704.3,-5651.4,-683.1,-1242.9,-1042.2,-453.9,-354.3,-681.3,-16.5,-5.1,-1080.6,-612.9,-7.2,-375.9,-2414.7,-651.3,0,2178,0,6,0,
1.2133,-321.0,-231.3,-250.2,-270.6,191.1,-383.7,-746.1,-972.9,-1852.5,-5651.1,-670.5,-1228.8,-1010.4,-470.1,-368.7,-673.2,-16.2,-5.1,-1060.5,-595.8,-7.8,-355.8,-2396.1,-627.0,0,2184,0,7,0,
1.2167,-319.5,-237.6,-250.8,-272.1,200.1,-365.1,-746.1,-971.1,-2297.1,-5650.5,-668.4,-1226.4,-1021.2,-442.5,-367.5,-677.1,-16.2,-4.8,-1059.6,-595.2,-7.5,-358.2,-2404.8,-632.7,0,2190,0,8,0,
1.2200,-319.8,-236.1,-242.4,-269.4,179.4,-367.5,-746.1,-967.8,-2667.6,-5650.8,-662.4,-1222.8,-1014.6,-456.0,-374.1,-667.8,-16.2,-5.4,-1050.3,-594.3,-7.5,-350.4,-2394.3,-640.2,0,2196,0,9,0,
1.2233,-323.1,-239.4,-249.9,-269.7,192.9,-358.5,-751.8,-973.5,-2593.5,-5650.8,-671.4,-1226.4,-1021.8,-449.7,-366.9,-666.3,-16.2,-5.1,-1054.8,-602.1,-7.2,-361.5,-2403.9,-637.8,0,2202,0,10,0,
1.2267,-320.1,-232.8,-244.2,-263.4,200.1,-361.5,-747.9,-974.7,-2074.8,-5650.8,-669.9,-1226.1,-1017.0,-457.8,-369.6,-666.9,-16.5,-5.1,-1065.3,-600.6,-7.5,-368.1,-2408.7,-650.4,0,2208,0,11,0,
1.2300,-320.1,-231.3,-246.0,-269.4,192.9,-363.3,-748.2,-976.2,-1704.3,-5650.5,-666.3,-1226.4,-1023.0,-462.9,-359.7,-672.0,-16.8,-5.1,-1055.1,-599.4,-7.5,-364.5,-2412.6,-636.6,0,2214,0,12,0,
1.2333,-324.0,-243.3,-256.2,-273.0,199.8,-354.6,-744.3,-977.1,-1926.6,-5650.5,-679.5,-1238.7,-1037.1,-459.3,-357.9,-673.2,-16.2,-5.1,-1065.6,-622.8,-7.5,-377.4,-2409.3,-689.7,0,2220,0,13,0,
1.2367,-308.7,-226.8,-242.1,-268.2,173.4,-353.4,-741.9,-969.3,-2297.1,-5649.9,-666.6,-1224.3,-1016.4,-452.4,-367.2,-653.7,-16.2,-5.1,-1056.0,-594.0,-7.5,-360.9,-2391.9,-606.3,0,2226,0,14,0,
1.2400,-315.0,-233.4,-244.8,-262.2,193.2,-340.2,-741.6,-967.8,-2815.8,-5651.1,-667.2,-1225.2,-1025.4,-456.3,-360.9,-665.4,-16.2,-5.1,-1053.6,-601.2,-7.5,-365.1,-2402.4,-642.0,0,2232,0,15,0,
1.2433,-310.2,-221.1,-230.1,-255.6,198.9,-372.9,-742.8,-963.3,-2445.3,-5650.5,-656.7,-1215.0,-1009.2,-444.3,-369.0,-681.6,-16.8,-5.1,-1041.6,-588.3,-7.5,-354.3,-2413.2,-602.1,0,2238,0,16,0,
1.2467,-301.8,-222.0,-230.4,-246.9,211.8,-351.6,-743.4,-958.5,-2074.8,-5650.8,-651.9,-1210.5,-1009.2,-436.5,-365.7,-687.9,-16.2,-5.1,-1037.4,-583.2,-7.5,-348.0,-2411.7,-629.7,0,2244,0,17,0,
1.2500,-307.8,-220.2,-232.5,-256.8,205.5,-351.3,-746.7,-958.5,-1704.3,-5650.8,-668.4,-1221.0,-1014.3,-461.4,-360.3,-689.1,-16.5,-5.1,-1049.4,-602.1,-7.5,-360.3,-2406.3,-633.3,0,2250,0,18,0,
1.2533,-305.4,-227.7,-240.0,-259.8,200.1,-367.8,-752.4,-963.0,-1926.6,-5651.1,-675.9,-1224.3,-1022.1,-445.5,-352.8,-690.3,-16.2,-5.1,-1071.9,-605.4,-7.5,-358.2,-2414.7,-649.2,0,2256,0,19,0,
1.2567,-306.3,-225.6,-238.5,-264.6,195.6,-362.7,-745.8,-962.4,-2297.1,-5650.5,-663.9,-1224.6,-1018.5,-441.3,-359.4,-695.7,-16.5,-5.1,-1068.0,-611.7,-7.8,-361.2,-2411.1,-658.8,0,2262,0,20,0,
1.2600,-304.5,-220.8,-229.8,-246.6,225.9,-328.2,-732.0,-948.9,-2667.6,-5650.5,-653.1,-1210.5,-1000.8,-451.2,-372.0,-679.8,-16.5,-5.1,-1053.3,-594.0,-7.5,-352.8,-2402.4,-630.0,0,2268,0,21,0,
1.2633,-306.3,-226.2,-239.7,-266.1,186.3,-366.6,-745.8,-964.2,-2445.3,-5651.1,-673.2,-1225.5,-1010.4,-447.6,-359.4,-684.9,-16.5,-5.4,-1069.8,-601.8,-7.5,-357.9,-2411.1,-621.9,0,2274,0,22,0,
1.2667,-303.0,-237.0,-253.2,-271.8,192.3,-386.4,-746.7,-971.1,-2148.9,-5651.4,-685.8,-1235.7,-1023.9,-449.7,-360.6,-675.6,-16.5,-4.8,-1083.9,-617.1,-7.5,-376.2,-2404.5,-641.7,0,2280,0,23,0,
1.2700,-307.2,-239.1,-256.5,-275.7,206.7,-368.7,-747.3,-971.1,-1630.2,-5651.1,-688.2,-1242.9,-1030.5,-461.1,-361.8,-665.4,-16.5,-5.1,-1094.4,-616.8,-7.5,-394.8,-2417.4,-668.1,0,2286,0,24,0,
1.2733,-306.3,-232.8,-243.9,-267.9,200.1,-359.7,-736.5,-966.0,-2000.7,-5651.1,-667.5,-1231.2,-1019.4,-449.7,-383.1,-654.0,-16.2,-4.8,-1077.6,-618.6,-7.5,-364.8,-2400.0,-640.2,0,2292,0,25,0,
1.2767,-314.7,-227.4,-238.8,-267.0,174.0,-365.1,-733.5,-963.9,-2297.1,-5650.8,-654.3,-1211.1,-1005.3,-442.5,-386.1,-674.4,-16.2,-5.1,-1055.1,-587.1,-7.2,-336.3,-2382.0,-622.2,0,2298,0,26,0,
1.2800,-316.5,-239.7,-244.8,-267.9,194.1,-321.3,-733.5,-968.1,-2593.5,-5651.4,-671.1,-1230.9,-1018.2,-452.7,-371.4,-677.1,-16.5,-5.1,-1069.2,-608.1,-7.5,-366.0,-2393.4,-679.2,0,2304,0,27,0,
1.2833,-317.4,-240.9,-253.8,-280.5,175.5,-383.1,-750.0,-982.8,-2445.3,-5650.8,-681.0,-1240.2,-1021.2,-446.1,-359.7,-669.6,-16.5,-5.1,-1073.4,-607.5,-7.5,-358.2,-2407.5,-611.4,0,2310,0,28,0,
1.2867,-317.4,-242.7,-250.8,-281.4,171.9,-386.7,-748.2,-986.1,-2223.0,-5650.8,-673.2,-1231.8,-1019.1,-438.3,-351.6,-680.1,-16.5,-5.7,-1071.6,-600.9,-7.5,-359.1,-2404.5,-636.9,0,2316,0,29,0,
1.2900,-312.3,-236.4,-254.7,-281.7,177.6,-376.8,-745.5,-983.1,-1630.2,-5650.8,-675.0,-1236.0,-1020.9,-435.9,-351.9,-670.2,-16.2,-5.4,-1071.3,-611.7,-7.2,-359.1,-2405.7,-636.3,0,2322,0,30,0,
1.2933,-316.2,-233.1,-252.9,-274.8,205.2,-368.4,-740.4,-985.8,-1926.6,-5651.1,-670.2,-1235.4,-1021.2,-434.4,-364.5,-672.0,-16.5,-5.1,-1069.2,-612.9,-7.5,-354.9,-2405.4,-640.2,0,2328,0,31,0,
1.2967,-315.0,-240.6,-255.9,-280.2,185.4,-371.4,-742.8,-987.0,-2297.1,-5650.8,-678.3,-1235.1,-1026.0,-438.6,-354.6,-669.9,-16.2,-4.8,-1072.2,-605.7,-7.8,-353.1,-2405.4,-642.3,0,2334,0,32,0,
1.3000,-318.0,-232.8,-255.0,-281.4,177.6,-350.1,-737.4,-982.2,-2593.5,-5651.1,-670.5,-1231.8,-1026.3,-434.1,-362.4,-672.0,-16.5,-5.4,-1074.6,-604.8,-7.2,-351.9,-2400.3,-641.4,0,2340,0,33,0,
1.3033,-308.7,-227.4,-247.2,-276.6,196.8,-359.7,-732.3,-977.7,-2519.4,-5650.2,-666.6,-1229.1,-1008.3,-446.4,-349.2,-655.2,-16.5,-4.8,-1065.0,-595.8,-7.5,-343.8,-2388.6,-618.3,0,2346,0,34,0,
1.3067,-311.4,-231.9,-246.3,-277.5,183.9,-367.5,-740.4,-978.9,-2148.9,-5651.1,-670.8,-1236.6,-1013.4,-444.9,-345.6,-663.6,-16.2,-4.8,-1072.2,-606.6,-7.5,-345.0,-2397.0,-653.1,0,2352,0,35,0,
1.3100,-310.8,-238.2,-252.6,-282.3,189.6,-364.8,-741.3,-980.1,-1704.3,-5650.5,-671.1,-1238.7,-1021.5,-435.3,-353.4,-654.9,-16.5,-5.1,-1059.6,-607.8,-7.5,-369.6,-2397.0,-645.6,0,2358,0,36,0,
1.3133,-307.5,-220.8,-243.0,-267.6,207.0,-353.1,-738.6,-972.9,-1852.5,-5651.4,-672.3,-1224.9,-1024.2,-430.8,-367.8,-645.9,-16.2,-4.8,-1060.8,-590.7,-7.2,-355.2,-2400.3,-651.6,0,2364,0,37,0,
1.3167,-310.5,-234.0,-249.0,-267.6,212.4,-333.9,-732.9,-966.0,-2223.0,-5651.1,-671.4,-1228.2,-1013.7,-426.9,-359.7,-662.1,-16.5,-5.1,-1062.0,-593.1,-7.2,-358.2,-2389.2,-666.3,0,2370,0,38,0,
1.3200,-307.5,-234.9,-247.5,-275.4,170.4,-361.8,-743.1,-971.1,-2667.6,-5650.8,-657.0,-1222.8,-1011.9,-420.0,-354.3,-664.2,-16.5,-4.8,-1055.1,-594.9,-7.5,-334.2,-2400.3,-606.3,0,2376,0,39,0,
1.3233,-311.7,-231.3,-247.2,-278.7,175.2,-373.2,-738.6,-975.9,-2667.6,-5650.8,-663.9,-1225.8,-1006.8,-422.7,-348.6,-645.3,-16.2,-5.4,-1063.2,-596.1,-7.2,-346.2,-2394.6,-625.5,0,2382,0,40,0,
1.3267,-313.2,-233.4,-247.8,-281.4,185.1,-357.3,-735.3,-976.2,-1926.6,-5650.5,-670.5,-1228.5,-1021.8,-427.8,-340.5,-640.2,-16.2,-4.8,-1070.4,-603.6,-7.5,-360.9,-2397.9,-637.5,0,2388,0,41,0,
1.3300,-308.4,-234.6,-248.1,-275.4,185.1,-365.4,-731.7,-969.6,-1704.3,-5650.8,-672.6,-1234.5,-1023.0,-431.1,-343.8,-657.0,-16.2,-5.4,-1074.0,-600.0,-7.8,-356.7,-2397.3,-641.7,0,2394,0,42,0,
1.3333,-303.0,-218.1,-230.4,-261.6,199.5,-334.5,-732.6,-954.9,-1852.5,-5651.4,-652.8,-1223.7,-1016.7,-425.7,-363.6,-659.4,-16.2,-5.1,-1063.5,-590.7,-7.2,-348.0,-2397.6,-644.4,0,2400,0,43,0,
1.3367,-311.7,-223.8,-231.9,-257.7,203.1,-311.4,-726.9,-953.1,-2297.1,-5651.4,-658.8,-1221.3,-1020.3,-442.8,-358.8,-659.7,-16.2,-5.1,-1074.9,-597.3,-7.2,-354.3,-2400.9,-659.7,0,2406,0,44,0,
1.3400,-312.0,-229.2,-230.7,-260.1,204.9,-377.7,-746.1,-962.1,-2519.4,-5651.4,-663.9,-1215.9,-1015.5,-445.5,-363.6,-674.7,-16.2,-5.1,-1074.0,-588.0,-7.2,-339.9,-2398.8,-612.3,0,2412,0,45,0,
1.3433,-318.3,-231.9,-228.0,-258.9,193.2,-375.6,-736.2,-964.8,-2445.3,-5651.4,-652.5,-1208.7,-1012.8,-427.5,-357.9,-661.5,-16.2,-4.8,-1061.4,-586.8,-8.1,-334.2,-2384.4,-610.8,0,2418,0,46,0,
1.3467,-312.3,-224.4,-230.1,-251.1,215.4,-351.9,-733.8,-961.8,-2074.8,-5650.8,-661.5,-1208.1,-1019.1,-434.1,-345.9,-658.2,-16.5,-5.1,-1059.3,-574.2,-7.2,-333.9,-2390.4,-625.5,0,2424,0,47,0,
1.3500,-308.7,-226.5,-231.3,-258.9,222.6,-361.5,-735.6,-972.0,-1778.4,-5651.1,-667.2,-1224.0,-1015.5,-426.9,-354.0,-659.1,-16.2,-5.1,-1066.2,-598.8,-7.5,-342.9,-2393.4,-650.4,0,2430,0,48,0,
1.3533,-313.5,-232.8,-231.6,-258.9,194.7,-345.0,-726.0,-969.9,-1852.5,-5650.5,-652.2,-1220.7,-1016.1,-432.0,-367.8,-646.8,-16.5,-5.4,-1056.3,-594.9,-7.2,-335.7,-2393.1,-616.5,0,2436,0,49,0,
1.3567,-314.4,-229.8,-233.1,-264.3,180.9,-369.0,-732.0,-975.9,-2297.1,-5650.8,-653.1,-1215.6,-1013.4,-436.5,-371.1,-645.3,-16.5,-4.8,-1061.1,-588.9,-7.8,-334.8,-2395.2,-634.8,0,2442,0,50,0,
1.3600,-312.6,-242.7,-246.6,-268.5,194.1,-359.7,-729.9,-979.5,-2667.6,-5650.8,-669.6,-1224.6,-1031.4,-439.2,-359.4,-647.1,-16.2,-5.1,-1076.1,-600.3,-7.5,-357.3,-2394.9,-639.3,0,2448,0,51,0,
1.3633,-310.8,-231.3,-236.1,-272.7,196.2,-351.0,-729.3,-979.2,-2519.4,-5650.8,-667.2,-1230.0,-1026.0,-443.7,-358.2,-656.4,-16.5,-5.1,-1068.0,-618.0,-7.8,-359.7,-2398.8,-661.5,0,2454,0,52,0,
1.3667,-309.9,-231.6,-234.3,-265.8,208.8,-363.6,-728.7,-979.8,-2074.8,-5650.2,-656.7,-1221.6,-1018.8,-456.9,-339.9,-670.2,-16.8,-4.8,-1067.7,-592.8,-7.8,-347.7,-2406.0,-632.7,0,2460,0,53,0,
1.3700,-309.9,-235.5,-247.2,-284.1,158.1,-364.2,-731.4,-985.8,-1704.3,-5651.1,-673.5,-1235.4,-1025.1,-425.4,-332.7,-669.3,-16.2,-4.8,-1088.4,-612.9,-7.5,-361.2,-2407.8,-685.5,0,2466,0,54,0,
1.3733,-302.7,-229.8,-240.3,-268.5,195.6,-340.8,-718.8,-972.6,-1852.5,-5650.5,-663.9,-1229.1,-1029.0,-416.7,-350.7,-653.4,-16.5,-5.1,-1071.3,-611.4,-7.5,-353.1,-2399.1,-654.3,0,2472,0,55,0,
1.3767,-297.0,-213.6,-231.3,-267.6,187.8,-384.9,-729.9,-978.3,-2223.0,-5650.5,-657.9,-1215.9,-1015.8,-409.5,-330.0,-661.2,-16.8,-4.8,-1074.0,-595.8,-7.5,-335.4,-2387.7,-584.1,0,2478,0,56,0,
1.3800,-301.8,-223.8,-221.7,-259.2,207.0,-344.1,-721.5,-964.2,-2741.7,-5650.5,-648.3,-1208.1,-994.2,-425.7,-343.2,-650.1,-16.5,-5.4,-1059.3,-588.9,-7.5,-339.3,-2379.6,-625.5,0,2484,0,57,0,
1.3833,-304.2,-225.0,-232.8,-262.2,202.2,-350.1,-723.0,-965.4,-2519.4,-5650.8,-651.9,-1212.6,-1003.5,-420.3,-363.3,-649.5,-16.2,-5.7,-1051.2,-582.0,-7.8,-342.3,-2392.5,-630.9,0,2490,0,58,0,
1.3867,-305.7,-222.3,-234.6,-267.3,194.1,-325.8,-725.1,-959.4,-2148.9,-5651.1,-651.6,-1212.6,-1000.5,-419.7,-367.8,-662.4,-16.2,-4.8,-1065.0,-597.3,-7.5,-348.0,-2399.7,-664.8,0,2496,0,59,0,
1.3900,-293.7,-206.1,-220.8,-253.2,201.6,-357.0,-730.8,-958.5,-1630.2,-5650.8,-646.8,-1202.7,-991.8,-427.5,-354.0,-672.6,-16.2,-5.1,-1053.6,-585.9,-7.5,-330.3,-2410.5,-604.5,0,2502,0,60,0,
1.3933,-291.9,-205.5,-215.4,-245.1,222.6,-368.1,-730.2,-951.9,-1778.4,-5650.8,-639.6,-1195.2,-986.1,-403.5,-348.6,-668.4,-16.2,-5.1,-1048.8,-579.9,-7.5,-328.2,-2397.9,-620.4,0,2508,0,61,0,
1.3967,-296.1,-219.0,-219.0,-254.1,207.0,-355.5,-726.0,-954.0,-2223.0,-5650.8,-648.0,-1198.5,-992.7,-413.7,-351.0,-664.2,-16.2,-5.1,-1059.3,-581.4,-7.5,-335.4,-2399.4,-623.4,0,2514,0,62,0,
1.4000,-295.2,-216.9,-223.2,-260.7,211.2,-354.3,-732.0,-954.6,-2741.7,-5651.1,-652.2,-1209.9,-996.0,-419.7,-357.9,-669.9,-16.2,-4.8,-1067.1,-595.8,-7.5,-343.8,-2407.5,-640.5,0,2520,0,63,0,
1.4033,-292.5,-216.3,-223.2,-259.5,202.5,-351.9,-731.1,-956.4,-2445.3,-5651.7,-650.4,-1209.3,-1000.2,-413.4,-341.4,-675.9,-16.2,-4.8,-1065.6,-589.5,-7.5,-340.2,-2403.6,-623.7,0,2526,0,64,0,
1.4067,-297.3,-219.3,-232.5,-266.7,174.6,-363.0,-737.4,-960.0,-2148.9,-5650.2,-650.1,-1210.8,-1018.8,-413.4,-342.9,-666.0,-16.8,-5.1,-1067.4,-591.9,-7.5,-343.5,-2397.6,-626.4,0,2532,0,65,0,
1.4100,-302.7,-223.2,-234.9,-268.2,189.0,-368.1,-739.5,-962.7,-1778.4,-5651.4,-660.3,-1218.9,-1015.2,-422.7,-341.1,-660.3,-16.2,-5.1,-1078.5,-602.4,-7.8,-351.0,-2404.2,-639.0,0,2538,0,66,0,
1.4133,-306.0,-222.3,-229.5,-263.4,196.8,-352.2,-728.4,-956.1,-1852.5,-5651.1,-661.5,-1214.1,-1000.5,-433.5,-360.9,-654.9,-16.5,-4.8,-1077.9,-590.7,-6.9,-339.6,-2395.5,-624.0,0,2544,0,67,0,
1.4167,-303.6,-224.1,-233.4,-267.6,212.4,-344.4,-732.9,-957.6,-2223.0,-5651.1,-667.5,-1220.1,-1007.4,-423.9,-349.5,-665.4,-16.2,-5.1,-1079.1,-593.7,-8.1,-345.6,-2406.0,-638.1,0,2550,0,68,0,
1.4200,-308.4,-229.5,-244.5,-275.4,212.4,-350.7,-733.8,-962.7,-2593.5,-5650.2,-665.1,-1236.6,-1019.1,-445.5,-346.8,-677.4,-16.2,-5.1,-1097.7,-623.1,-7.5,-364.2,-2403.3,-650.7,0,2556,0,69,0,
1.4233,-314.7,-243.9,-254.4,-287.4,152.1,-370.2,-727.8,-972.0,-2519.4,-5650.2,-667.5,-1230.3,-1011.3,-434.4,-345.3,-667.2,-16.5,-5.4,-1096.8,-609.9,-7.5,-336.6,-2397.0,-617.7,0,2562,0,70,0,
1.4267,-313.2,-234.9,-246.0,-273.0,199.8,-350.1,-724.8,-961.5,-2074.8,-5650.8,-670.2,-1225.8,-1018.5,-423.3,-365.7,-661.8,-16.2,-5.1,-1089.6,-613.2,-7.5,-347.1,-2394.0,-627.3,0,2568,0,71,0,
1.4300,-314.7,-238.8,-241.5,-267.6,188.4,-324.6,-710.4,-957.3,-1704.3,-5651.1,-667.5,-1223.4,-1017.3,-434.7,-382.8,-650.7,-16.5,-5.1,-1095.6,-596.7,-7.5,-340.8,-2379.6,-650.4,0,2574,0,72,0,
1.4333,-313.5,-238.8,-240.6,-276.6,182.1,-366.6,-720.3,-962.4,-1778.4,-5650.5,-669.0,-1221.3,-1030.5,-430.8,-363.0,-648.9,-16.2,-5.4,-1097.4,-602.1,-7.8,-353.1,-2391.3,-620.1,0,2580,0,73,0,
1.4367,-326.4,-246.6,-253.8,-279.6,188.7,-354.6,-722.1,-969.3,-2371.2,-5650.5,-682.8,-1229.1,-1029.6,-450.0,-370.2,-665.1,-16.2,-5.1,-1113.9,-616.8,-7.5,-363.6,-2401.8,-638.4,0,2586,0,74,0,
1.4400,-323.4,-248.1,-255.6,-283.5,182.7,-367.8,-726.0,-972.0,-2593.5,-5650.8,-683.1,-1234.5,-1032.6,-456.9,-377.7,-669.9,-16.5,-5.4,-1108.5,-624.3,-7.5,-367.2,-2405.7,-636.3,0,2592,0,75,0,
1.4433,-324.3,-253.5,-269.1,-291.6,165.3,-366.9,-733.2,-980.7,-2519.4,-5651.1,-693.0,-1248.3,-1047.6,-456.0,-375.9,-675.9,-16.5,-5.1,-1112.4,-636.3,-7.5,-371.1,-2419.8,-655.8,0,2598,0,76,0,
1.4467,-324.6,-253.2,-268.2,-291.3,170.7,-360.3,-727.2,-980.7,-2074.8,-5650.2,-689.7,-1247.7,-1047.9,-452.4,-357.6,-683.4,-16.2,-5.1,-1106.4,-619.2,-7.5,-383.1,-2416.8,-680.1,0,2604,0,77,0,
1.4500,-325.5,-259.8,-276.0,-296.1,186.6,-365.7,-728.4,-984.0,-1704.3,-5650.5,-697.8,-1258.2,-1056.9,-478.5,-357.0,-688.8,-16.5,-5.1,-1117.2,-645.9,-7.8,-387.0,-2426.4,-695.7,0,2610,0,78,0,
1.4533,-314.4,-247.2,-264.0,-295.2,154.8,-370.5,-731.1,-979.2,-1778.4,-5650.5,-690.9,-1249.5,-1046.4,-448.2,-361.8,-672.9,-16.8,-5.4,-1101.0,-635.4,-7.5,-369.9,-2411.7,-609.0,0,2616,0,79,0,
1.4567,-314.4,-255.3,-263.4,-285.6,214.5,-374.4,-727.5,-983.4,-2223.0,-5650.8,-690.6,-1243.5,-1054.2,-444.9,-351.6,-663.9,-16.5,-5.1,-1097.1,-627.0,-7.5,-375.3,-2419.5,-624.3,0,2622,0,80,0,
1.4600,-318.0,-249.3,-262.2,-296.7,142.2,-378.6,-720.6,-986.1,-2593.5,-5650.8,-684.0,-1240.2,-1042.8,-445.5,-347.7,-641.1,-16.5,-4.8,-1095.3,-616.5,-7.2,-367.5,-2393.1,-626.4,0,2628,0,81,0,
1.4633,-323.7,-256.5,-262.2,-293.4,163.2,-371.7,-721.8,-983.4,-2593.5,-5651.4,-689.1,-1241.7,-1042.5,-440.4,-352.8,-630.6,-16.2,-4.8,-1105.8,-618.9,-7.5,-366.9,-2387.4,-631.5,0,2634,0,82,0,
1.4667,-323.4,-245.1,-250.8,-278.4,190.2,-334.5,-714.6,-968.7,-2074.8,-5650.2,-676.5,-1235.7,-1041.3,-442.2,-361.2,-636.3,-16.5,-5.1,-1095.3,-616.8,-7.5,-366.0,-2405.4,-655.8,0,2640,0,83,0,
1.4700,-315.3,-238.2,-249.0,-275.4,197.4,-366.3,-723.6,-966.3,-1778.4,-5650.2,-669.9,-1227.0,-1030.2,-443.1,-353.7,-658.8,-16.5,-4.8,-1093.2,-608.1,-7.5,-355.8,-2396.1,-606.6,0,2646,0,84,0,
1.4733,-316.5,-237.9,-247.5,-274.2,165.9,-367.5,-726.3,-962.1,-1852.5,-5650.8,-663.6,-1213.2,-1027.5,-444.6,-347.4,-656.7,-16.2,-5.4,-1083.0,-587.1,-7.8,-346.5,-2395.8,-622.2,0,2652,0,85,0,
1.4767,-317.7,-228.3,-234.0,-272.1,184.8,-356.4,-723.0,-958.2,-2223.0,-5651.1,-670.2,-1219.5,-1026.3,-442.8,-366.6,-648.6,-16.2,-5.1,-1079.4,-614.4,-7.2,-350.7,-2393.7,-630.0,0,2658,0,86,0,
1.4800,-313.8,-226.5,-230.4,-261.3,205.8,-346.2,-737.1,-956.7,-2667.6,-5650.2,-646.5,-1207.2,-1016.4,-450.0,-361.8,-692.1,-16.5,-5.1,-1067.1,-596.1,-7.5,-340.8,-2414.7,-610.5,0,2664,0,87,0,
1.4833,-308.7,-225.0,-230.7,-262.2,194.1,-349.8,-737.4,-954.0,-2519.4,-5650.5,-639.9,-1205.4,-1016.7,-445.2,-359.1,-693.3,-16.5,-5.1,-1056.3,-585.6,-7.5,-337.8,-2410.2,-619.2,0,2670,0,88,0,
1.4867,-313.5,-220.2,-223.8,-254.7,206.1,-357.0,-735.6,-952.5,-2074.8,-5650.5,-651.9,-1197.3,-1019.4,-435.9,-359.7,-687.0,-16.5,-5.1,-1063.2,-573.0,-7.5,-337.2,-2403.0,-609.3,0,2676,0,89,0,
1.4900,-315.0,-223.8,-228.6,-260.7,189.3,-348.6,-731.7,-956.7,-1704.3,-5651.1,-657.6,-1208.1,-1009.2,-436.2,-348.6,-675.3,-16.5,-4.8,-1078.5,-596.1,-6.9,-340.5,-2400.3,-628.2,0,2682,0,90,0,
1.4933,-314.1,-233.4,-228.0,-255.9,196.2,-354.3,-733.5,-952.2,-1852.5,-5651.4,-645.0,-1200.3,-1014.3,-430.2,-359.7,-674.4,-16.8,-5.1,-1066.5,-582.0,-7.5,-347.4,-2411.4,-623.1,0,2688,0,91,0,
1.4967,-314.1,-222.0,-221.1,-246.3,208.5,-326.1,-729.9,-945.9,-2223.0,-5650.5,-637.5,-1198.8,-1025.1,-429.3,-359.4,-671.4,-16.5,-5.1,-1065.9,-591.9,-7.5,-346.8,-2409.0,-630.9,0,2694,0,92,0,
1.5000,-315.0,-224.1,-218.1,-247.5,202.8,-353.4,-730.8,-949.5,-2667.6,-5650.8,-644.1,-1194.3,-1039.8,-433.5,-366.0,-675.0,-16.2,-4.8,-1068.9,-579.6,-7.5,-346.8,-2398.5,-629.7,0,2700,0,93,0,
1.5033,-309.9,-220.8,-219.6,-245.4,205.5,-360.0,-731.7,-949.5,-2519.4,-5650.5,-651.6,-1196.4,-1028.7,-439.2,-371.7,-677.1,-16.5,-5.4,-1062.0,-587.1,-7.2,-339.3,-2409.6,-614.1,0,2706,0,94,0,
1.5067,-311.4,-219.0,-218.4,-246.9,200.7,-351.6,-730.2,-954.9,-2223.0,-5650.8,-648.3,-1199.1,-1025.7,-438.0,-366.3,-678.6,-16.8,-5.4,-1083.6,-583.8,-7.5,-341.4,-2413.5,-618.3,0,2712,0,95,0,
1.5100,-314.1,-219.6,-222.0,-246.6,236.7,-359.4,-727.8,-954.6,-1630.2,-5650.2,-647.4,-1200.9,-1020.3,-454.2,-368.4,-668.1,-16.2,-5.1,-1088.4,-590.1,-7.5,-362.7,-2406.3,-631.8,0,2718,0,96,0,
1.5133,-312.3,-226.5,-232.8,-259.8,184.2,-333.9,-720.0,-958.5,-1778.4,-5650.5,-649.5,-1206.6,-1016.1,-439.8,-372.6,-670.2,-16.5,-5.4,-1072.8,-597.3,-7.5,-351.9,-2409.3,-660.3,0,2724,0,97,0,
1.5167,-316.5,-235.2,-240.6,-264.6,189.0,-321.6,-719.1,-966.0,-2223.0,-5650.8,-660.0,-1220.7,-1039.5,-443.1,-373.2,-669.6,-16.5,-5.1,-1085.7,-606.6,-7.5,-362.4,-2396.1,-698.1,0,2730,0,98,0,
1.5200,-313.5,-231.0,-242.4,-269.7,187.2,-391.2,-729.9,-974.7,-2667.6,-5651.1,-666.0,-1219.8,-1028.4,-444.6,-366.0,-667.8,-16.5,-5.1,-1088.1,-593.4,-7.2,-365.4,-2401.8,-600.9,0,2736,0,99,0,
1.5233,-322.5,-247.2,-255.3,-278.4,173.7,-358.2,-729.6,-978.9,-2593.5,-5650.2,-682.5,-1233.6,-1034.1,-451.5,-370.8,-680.1,-16.5,-4.8,-1101.0,-628.8,-7.8,-373.2,-2415.9,-653.1,0,2742,0,100,0,
1.5267,-318.3,-242.1,-258.3,-282.0,176.7,-360.3,-724.5,-976.2,-2000.7,-5650.5,-689.1,-1233.3,-1036.5,-448.2,-375.9,-680.7,-16.2,-5.1,-1101.9,-610.5,-7.5,-372.3,-2405.4,-630.9,0,2748,0,101,0,
1.5300,-317.7,-236.7,-253.2,-286.5,163.5,-391.2,-730.8,-980.4,-1778.4,-5650.5,-675.6,-1224.9,-1033.8,-439.8,-360.6,-667.2,-16.2,-5.1,-1106.7,-606.6,-7.8,-354.0,-2404.8,-609.6,0,2754,0,102,0,
1.5333,-324.3,-251.7,-263.4,-294.6,162.0,-381.9,-736.2,-982.5,-1926.6,-5651.4,-687.6,-1242.9,-1047.0,-450.3,-370.5,-679.8,-16.2,-5.1,-1118.1,-628.5,-7.5,-374.1,-2415.3,-638.7,0,2760,0,103,0,
1.5367,-322.5,-238.2,-251.4,-286.2,161.7,-378.9,-733.2,-984.0,-2371.2,-5650.8,-687.9,-1236.6,-1039.2,-450.0,-366.3,-674.4,-16.5,-5.1,-1112.1,-620.7,-7.5,-366.0,-2411.4,-634.5,0,2766,0,104,0,
1.5400,-321.0,-256.8,-263.7,-291.6,165.9,-379.2,-730.8,-980.7,-2519.4,-5649.9,-688.8,-1238.1,-1031.1,-441.0,-360.6,-658.5,-16.2,-5.1,-1108.8,-625.8,-7.5,-372.3,-2405.1,-648.9,0,2772,0,105,0,
1.5433,-322.5,-245.1,-252.3,-275.7,183.0,-364.2,-722.1,-971.7,-2667.6,-5650.2,-674.4,-1223.7,-1038.9,-446.4,-365.1,-668.7,-16.5,-5.1,-1105.5,-613.5,-7.5,-362.4,-2406.3,-637.8,0,2778,0,106,0,
1.5467,-313.5,-231.0,-241.2,-277.2,174.0,-378.3,-727.8,-971.4,-2148.9,-5650.8,-677.1,-1227.3,-1029.3,-449.4,-358.2,-664.8,-16.2,-4.8,-1095.6,-617.7,-7.2,-353.4,-2409.0,-616.2,0,2784,0,107,0,
1.5500,-315.6,-232.8,-248.7,-278.7,176.7,-345.6,-729.3,-971.1,-1778.4,-5650.8,-676.5,-1225.5,-1025.7,-461.7,-372.9,-670.5,-16.5,-5.1,-1101.3,-616.2,-7.5,-358.8,-2408.4,-641.4,0,2790,0,108,0,
1.5533,-319.2,-239.7,-252.6,-285.6,170.1,-378.6,-736.8,-980.1,-1778.4,-5649.9,-683.4,-1231.8,-1035.3,-444.6,-362.7,-669.9,-16.5,-5.1,-1103.7,-621.6,-7.8,-363.0,-2410.8,-624.3,0,2796,0,109,0,
1.5567,-317.1,-234.9,-244.8,-276.9,198.9,-359.7,-732.3,-969.9,-2223.0,-5650.5,-676.8,-1225.2,-1028.4,-452.1,-376.5,-671.4,-16.5,-5.1,-1098.3,-611.7,-7.5,-366.0,-2412.6,-653.7,0,2802,0,110,0,
1.5600,-313.8,-223.5,-231.9,-267.0,187.8,-356.4,-725.1,-960.9,-2741.7,-5650.8,-665.7,-1223.4,-1023.0,-443.7,-369.3,-670.2,-16.2,-5.1,-1089.9,-609.3,-7.5,-353.4,-2400.0,-623.1,0,2808,0,111,0,
1.5633,-318.0,-235.8,-238.5,-268.8,201.9,-355.5,-734.4,-963.9,-2593.5,-5651.4,-669.0,-1221.9,-1028.4,-443.1,-369.6,-666.6,-16.5,-5.1,-1093.5,-607.8,-7.5,-353.7,-2416.8,-646.2,0,2814,0,112,0,
1.5667,-310.5,-222.6,-230.4,-262.8,197.1,-346.8,-726.0,-959.4,-2074.8,-5651.1,-660.9,-1210.8,-1015.2,-432.0,-366.6,-680.4,-16.2,-5.1,-1094.1,-595.8,-7.5,-347.1,-2402.4,-625.5,0,2820,0,113,0,
1.5700,-304.2,-222.9,-225.0,-259.8,187.5,-360.0,-735.3,-959.4,-1778.4,-5649.9,-651.6,-1202.4,-1005.9,-419.7,-344.1,-683.4,-16.5,-5.4,-1092.3,-587.1,-7.8,-347.1,-2412.0,-603.3,0,2826,0,114,0,
1.5733,-305.4,-223.8,-230.4,-261.9,181.8,-367.5,-736.8,-968.7,-1778.4,-5650.5,-649.8,-1208.7,-1025.7,-426.3,-352.2,-663.9,-16.2,-5.1,-1081.8,-598.2,-7.5,-342.3,-2400.0,-611.1,0,2832,0,115,0,
1.5767,-310.2,-233.7,-240.6,-270.9,180.0,-350.7,-729.3,-964.5,-2371.2,-5651.1,-658.2,-1212.3,-1033.5,-425.7,-348.3,-655.5,-16.5,-4.8,-1072.8,-606.3,-7.5,-354.3,-2404.2,-637.8,0,2838,0,116,0,
1.5800,-309.3,-226.5,-230.1,-257.7,200.1,-353.4,-729.9,-963.3,-2519.4,-5651.1,-657.3,-1205.7,-1003.5,-427.2,-364.2,-655.2,-16.5,-5.1,-1086.0,-601.5,-7.8,-344.4,-2403.0,-624.3,0,2844,0,117,0,
1.5833,-309.9,-226.2,-227.4,-257.1,200.7,-370.8,-726.9,-961.2,-2445.3,-5649.9,-645.9,-1201.8,-1013.1,-438.0,-367.8,-660.0,-16.5,-5.1,-1079.1,-584.7,-7.2,-345.9,-2397.9,-618.9,0,2850,0,118,0,
1.5867,-305.4,-217.2,-225.3,-261.6,183.6,-352.2,-728.4,-963.6,-2148.9,-5649.9,-662.1,-1216.2,-1007.7,-442.2,-338.7,-667.2,-15.9,-5.1,-1092.3,-613.8,-7.5,-347.4,-2406.6,-665.4,0,2856,0,119,0,
1.5900,-312.0,-228.9,-232.5,-268.8,203.7,-349.8,-730.5,-967.8,-1778.4,-5650.5,-680.7,-1219.2,-1037.7,-435.6,-346.5,-683.1,-16.5,-5.1,-1089.9,-616.2,-7.5,-369.6,-2419.5,-648.9,0,2862,0,120,0,
1.5933,-307.8,-223.5,-224.1,-259.2,168.3,-368.1,-735.9,-969.0,-1852.5,-5651.1,-644.7,-1198.5,-1007.7,-438.3,-382.2,-669.6,-16.2,-5.4,-1067.4,-590.4,-7.8,-334.5,-2411.4,-597.6,0,2868,0,121,0,
1.5967,-313.8,-237.9,-228.3,-258.3,194.4,-356.1,-731.4,-968.4,-2297.1,-5651.1,-655.5,-1209.6,-1014.3,-435.3,-366.3,-675.6,-16.5,-5.4,-1078.5,-606.6,-7.5,-350.1,-2418.3,-633.9,0,2874,0,122,0,
1.6000,-313.2,-231.3,-235.2,-266.7,187.8,-385.8,-743.7,-975.0,-2667.6,-5649.9,-666.3,-1217.7,-1023.6,-441.6,-367.5,-685.8,-16.2,-5.4,-1093.5,-617.4,-7.5,-358.8,-2424.6,-660.3,0,2880,0,123,0,
1.6033,-313.2,-237.6,-239.1,-268.5,193.2,-348.6,-735.9,-972.9,-2445.3,-5650.5,-663.0,-1217.4,-1035.0,-444.6,-365.7,-686.7,-16.2,-4.8,-1095.0,-617.7,-7.2,-369.3,-2431.5,-663.3,0,2886,0,124,0,
1.6067,-308.7,-235.8,-239.1,-274.5,180.6,-370.2,-744.9,-974.1,-2148.9,-5650.5,-674.4,-1224.3,-1039.8,-447.3,-363.6,-689.7,-16.5,-4.8,-1104.0,-635.4,-7.5,-371.4,-2433.6,-657.6,0,2892,0,125,0,
1.6100,-315.3,-240.9,-249.6,-279.6,195.9,-379.8,-745.5,-979.2,-1852.5,-5650.8,-689.1,-1238.4,-1038.0,-455.7,-340.5,-688.8,-16.5,-5.1,-1110.3,-645.0,-7.8,-384.9,-2432.4,-644.7,0,2898,0,126,0,
1.6133,-312.0,-243.6,-248.1,-287.4,148.5,-386.4,-741.0,-984.6,-1852.5,-5650.5,-686.4,-1227.9,-1042.8,-446.4,-351.0,-686.7,-16.5,-5.1,-1108.2,-627.0,-7.5,-370.2,-2421.0,-651.3,0,2904,0,127,0,
1.6167,-313.5,-234.3,-240.9,-273.0,192.3,-342.0,-727.2,-969.9,-2371.2,-5649.9,-676.2,-1225.8,-1041.0,-446.7,-353.4,-673.5,-16.2,-4.8,-1093.5,-626.7,-7.2,-362.4,-2406.6,-641.1,0,2910,0,128,0,
1.6200,-313.5,-236.1,-240.0,-283.8,150.0,-400.8,-730.2,-984.9,-2593.5,-5650.2,-682.8,-1229.4,-1032.0,-444.0,-338.1,-669.0,-16.5,-5.7,-1100.4,-631.8,-7.5,-348.0,-2400.0,-611.1,0,2916,0,129,0,
1.6233,-315.0,-241.8,-247.2,-281.7,178.2,-369.0,-721.2,-980.4,-2667.6,-5650.8,-686.7,-1234.5,-1038.6,-446.7,-352.8,-665.7,-16.2,-5.1,-1104.6,-639.3,-7.8,-368.4,-2400.6,-636.6,0,2922,0,130,0,
1.6267,-321.0,-241.5,-250.2,-283.8,168.9,-374.4,-722.7,-984.0,-2148.9,-5651.7,-679.5,-1232.1,-1040.1,-437.1,-367.2,-665.7,-16.2,-4.8,-1098.6,-634.2,-7.2,-369.0,-2394.6,-646.5,0,2928,0,131,0,
1.6300,-310.5,-227.7,-237.3,-272.1,183.0,-357.0,-710.4,-969.6,-1852.5,-5649.9,-674.4,-1221.3,-1030.2,-441.6,-369.3,-655.8,-16.5,-4.8,-1094.4,-621.9,-7.5,-355.5,-2388.0,-629.4,0,2934,0,132,0,
1.6333,-312.6,-228.0,-236.7,-271.5,184.5,-363.0,-719.7,-976.2,-1926.6,-5650.5,-678.3,-1224.9,-1034.1,-440.7,-365.1,-653.7,-16.2,-5.1,-1098.6,-626.1,-7.2,-359.4,-2401.8,-648.3,0,2940,0,133,0,
1.6367,-317.1,-223.5,-231.9,-265.5,194.1,-339.3,-709.2,-965.1,-2223.0,-5651.1,-675.6,-1222.5,-1038.3,-441.0,-366.3,-657.6,-15.9,-4.8,-1096.5,-635.1,-7.2,-363.9,-2406.0,-669.9,0,2946,0,134,0,
1.6400,-318.0,-232.2,-234.9,-265.5,200.7,-342.0,-710.4,-968.4,-2667.6,-5651.4,-676.8,-1218.9,-1028.1,-441.0,-361.8,-657.3,-16.5,-5.1,-1095.3,-624.9,-7.5,-367.5,-2398.5,-667.5,0,2952,0,135,0,
1.6433,-322.2,-239.1,-233.1,-271.2,176.1,-353.4,-716.4,-967.8,-2667.6,-5650.5,-681.0,-1225.8,-1035.0,-441.3,-360.9,-655.5,-16.2,-4.8,-1108.2,-626.4,-7.2,-365.1,-2407.8,-625.2,0,2958,0,136,0,
1.6467,-312.0,-229.2,-229.2,-269.7,171.0,-404.7,-731.4,-966.3,-2074.8,-5649.9,-675.3,-1217.7,-1027.8,-437.1,-353.4,-655.8,-16.5,-5.4,-1087.2,-617.7,-7.5,-356.1,-2410.2,-608.1,0,2964,0,137,0,
1.6500,-317.7,-228.9,-229.8,-268.8,172.8,-363.3,-722.7,-961.8,-1926.6,-5650.8,-683.1,-1226.7,-1037.7,-442.8,-355.2,-659.7,-16.5,-5.1,-1097.7,-631.8,-7.5,-373.5,-2403.6,-642.6,0,2970,0,138,0,
1.6533,-321.3,-238.2,-242.1,-273.0,171.6,-342.6,-714.0,-965.1,-1852.5,-5651.4,-691.8,-1235.4,-1034.4,-445.5,-354.3,-634.5,-16.5,-5.1,-1107.9,-640.2,-7.5,-373.2,-2403.3,-656.1,0,2976,0,139,0,
1.6567,-319.8,-228.9,-233.4,-269.4,174.3,-376.8,-715.2,-964.5,-2297.1,-5651.1,-683.1,-1222.2,-1044.3,-440.7,-350.4,-647.4,-16.5,-4.8,-1092.3,-624.9,-7.8,-354.0,-2392.5,-607.8,0,2982,0,140,0,
1.6600,-310.5,-218.7,-220.8,-254.7,194.4,-350.1,-722.1,-954.6,-2519.4,-5650.2,-666.3,-1206.9,-1014.6,-445.2,-354.9,-681.3,-16.2,-4.8,-1078.5,-608.1,-7.2,-346.5,-2400.6,-621.6,0,2988,0,141,0,
1.6633,-310.2,-222.3,-221.1,-247.2,201.3,-351.0,-727.2,-951.0,-2593.5,-5650.2,-660.0,-1201.8,-1016.1,-417.0,-343.5,-687.9,-16.2,-5.4,-1080.9,-600.9,-7.8,-334.2,-2400.9,-616.2,0,2994,0,142,0,
1.6667,-306.0,-221.4,-223.8,-252.3,222.3,-337.5,-730.8,-953.4,-2148.9,-5650.5,-663.6,-1206.3,-1022.7,-421.2,-332.1,-692.1,-16.5,-5.4,-1094.4,-608.4,-7.2,-348.9,-2402.1,-647.4,0,3000,0,143,0,
1.6700,-307.5,-223.8,-219.6,-254.7,203.1,-354.3,-725.4,-960.3,-1852.5,-5651.4,-655.5,-1204.2,-1016.7,-426.6,-335.7,-684.6,-16.5,-5.1,-1080.3,-613.8,-7.8,-342.3,-2389.2,-626.4,0,3006,0,144,0,
1.6733,-300.6,-209.7,-214.5,-247.5,182.7,-333.6,-721.5,-954.6,-1704.3,-5650.2,-651.6,-1196.4,-1005.3,-423.3,-350.4,-677.7,-15.9,-5.1,-1068.3,-600.6,-7.5,-338.7,-2382.0,-615.0,0,3012,0,145,0,
1.6767,-300.9,-215.7,-219.9,-249.0,202.2,-350.1,-724.5,-960.6,-2371.2,-5650.5,-653.7,-1200.6,-1011.6,-417.0,-332.1,-674.1,-16.2,-5.1,-1079.1,-604.2,-7.5,-353.4,-2385.6,-620.4,0,3018,0,146,0,
1.6800,-309.6,-222.9,-226.2,-261.6,179.7,-360.6,-733.5,-972.3,-2593.5,-5650.5,-655.2,-1213.8,-1024.8,-426.3,-327.6,-683.7,-16.2,-5.4,-1086.0,-609.0,-7.5,-354.6,-2398.8,-639.6,0,3024,0,147,0,
1.6833,-309.6,-222.0,-219.3,-259.2,181.5,-355.5,-726.9,-971.1,-2519.4,-5652.0,-662.1,-1212.0,-1031.1,-428.4,-362.7,-674.4,-16.5,-4.8,-1089.6,-617.1,-7.5,-356.4,-2385.9,-626.7,0,3030,0,148,0,
1.6867,-313.2,-227.4,-229.5,-270.3,179.1,-355.8,-725.1,-973.5,-2148.9,-5650.5,-675.9,-1222.2,-1036.5,-439.2,-350.1,-673.2,-16.5,-5.1,-1110.6,-628.8,-7.5,-364.5,-2392.5,-661.8,0,3036,0,149,0,
1.6900,-322.8,-259.2,-265.5,-297.3,150.3,-378.9,-741.9,-999.3,-1778.4,-5649.6,-706.2,-1248.3,-1065.0,-452.7,-319.5,-693.0,-16.2,-5.1,-1136.4,-650.4,-7.5,-395.7,-2422.8,-675.9,0,3042,0,150,0,
1.6933,-316.2,-245.1,-258.3,-289.5,165.3,-382.5,-738.9,-988.2,-1852.5,-5650.2,-702.3,-1240.8,-1062.0,-444.9,-359.7,-696.9,-16.2,-5.1,-1128.6,-654.9,-7.5,-383.4,-2412.9,-669.0,0,3048,0,151,0,
1.6967,-320.1,-244.5,-256.2,-276.6,190.2,-362.7,-733.2,-978.6,-2371.2,-5650.8,-689.4,-1225.5,-1047.9,-449.7,-384.0,-699.6,-16.2,-5.1,-1111.2,-636.3,-7.5,-371.1,-2412.9,-645.0,0,3054,0,152,0,
1.7000,-327.0,-247.2,-262.2,-295.8,137.4,-345.0,-726.6,-990.3,-2667.6,-5651.7,-703.8,-1234.8,-1052.4,-450.9,-369.6,-692.1,-16.2,-5.1,-1121.7,-642.3,-7.5,-378.6,-2410.2,-721.8,0,3060,0,153,0,
1.7033,-330.9,-239.4,-253.5,-281.7,199.5,-354.3,-725.4,-986.7,-2593.5,-5651.4,-697.5,-1242.0,-1055.1,-452.4,-380.1,-690.6,-16.5,-5.1,-1123.2,-655.8,-7.2,-395.4,-2409.0,-657.9,0,3066,0,154,0,
1.7067,-328.2,-238.8,-254.4,-297.0,129.9,-405.3,-731.7,-995.4,-2297.1,-5649.9,-694.8,-1233.6,-1053.6,-440.7,-361.2,-690.9,-15.9,-4.8,-1123.5,-649.8,-7.5,-368.1,-2392.2,-622.5,0,3072,0,155,0,
1.7100,-322.8,-243.3,-250.5,-263.4,258.6,-335.1,-722.1,-976.5,-1778.4,-5650.5,-691.2,-1221.6,-1032.6,-443.4,-366.9,-693.0,-16.5,-5.1,-1112.4,-634.5,-7.5,-381.6,-2401.5,-661.8,0,3078,0,156,0,
1.7133,-323.7,-240.9,-251.4,-290.7,130.8,-371.7,-719.4,-991.2,-1926.6,-5650.2,-694.2,-1235.1,-1041.6,-442.8,-364.8,-685.5,-16.5,-5.1,-1124.7,-656.1,-7.5,-363.6,-2388.6,-633.0,0,3084,0,157,0,
1.7167,-323.1,-230.4,-241.8,-281.7,144.6,-393.9,-718.8,-988.8,-2297.1,-5650.8,-677.4,-1218.3,-1028.4,-459.0,-362.1,-670.8,-16.5,-5.1,-1104.6,-632.7,-7.5,-346.5,-2378.1,-592.8,0,3090,0,158,0,
1.7200,-325.8,-237.0,-245.7,-282.9,156.0,-365.1,-712.5,-983.7,-2593.5,-5650.5,-674.7,-1217.1,-1030.8,-442.8,-365.1,-662.4,-16.5,-4.8,-1095.9,-632.1,-7.5,-356.7,-2370.9,-657.0,0,3096,0,159,0,
1.7233,-321.6,-225.9,-244.2,-282.9,161.4,-353.7,-708.3,-982.2,-2593.5,-5649.3,-678.0,-1223.1,-1049.4,-434.4,-368.1,-660.0,-16.5,-4.8,-1099.8,-636.0,-7.2,-362.4,-2382.6,-645.6,0,3102,0,160,0,
1.7267,-321.3,-228.6,-245.1,-283.5,156.9,-378.0,-717.9,-984.6,-2000.7,-5650.2,-682.2,-1221.9,-1025.7,-442.2,-357.9,-661.2,-16.2,-5.1,-1095.6,-632.7,-7.5,-359.7,-2385.6,-617.1,0,3108,0,161,0,
1.7300,-322.2,-231.9,-237.9,-272.7,170.4,-350.7,-711.6,-981.6,-1778.4,-5650.5,-680.7,-1215.3,-1026.0,-454.8,-362.4,-661.2,-16.5,-4.8,-1095.6,-626.4,-7.5,-348.3,-2379.9,-642.6,0,3114,0,162,0,
1.7333,-325.2,-231.9,-244.2,-280.8,172.2,-356.7,-711.6,-984.0,-1852.5,-5651.7,-680.1,-1216.5,-1022.1,-449.7,-361.8,-681.6,-16.2,-5.4,-1108.2,-629.7,-7.2,-355.2,-2375.4,-641.7,0,3120,0,163,0,
1.7367,-315.6,-222.6,-234.6,-266.7,191.1,-336.3,-704.4,-974.4,-2223.0,-5650.5,-669.0,-1203.6,-1018.2,-430.5,-349.5,-686.4,-16.2,-5.1,-1098.3,-617.7,-7.5,-347.7,-2376.9,-651.3,0,3126,0,164,0,
1.7400,-307.8,-217.2,-224.7,-263.7,188.1,-364.2,-715.2,-970.8,-2593.5,-5649.9,-658.2,-1191.3,-1006.5,-415.8,-345.6,-693.3,-16.5,-5.1,-1086.9,-608.7,-6.9,-330.9,-2371.5,-611.1,0,3132,0,165,0,
1.7433,-314.7,-220.5,-224.4,-258.3,209.7,-326.7,-717.0,-966.0,-2667.6,-5650.5,-671.4,-1199.1,-1014.3,-423.9,-358.5,-686.4,-16.5,-5.4,-1092.6,-615.0,-7.5,-346.5,-2379.6,-676.2,0,3138,0,166,0,
1.7467,-314.1,-223.5,-238.5,-276.6,174.0,-361.5,-732.0,-979.5,-2074.8,-5651.1,-682.2,-1205.1,-1013.1,-422.4,-344.1,-687.9,-16.5,-5.4,-1100.7,-632.1,-7.5,-359.4,-2383.2,-638.7,0,3144,0,167,0,
1.7500,-303.9,-217.2,-237.0,-267.0,198.3,-372.3,-731.7,-976.8,-1704.3,-5651.4,-676.2,-1200.0,-1016.4,-422.4,-344.1,-684.3,-16.8,-5.1,-1096.8,-615.0,-7.8,-363.6,-2388.0,-627.0,0,3150,0,168,0,
1.7533,-306.9,-221.1,-241.8,-277.5,168.0,-365.7,-735.6,-979.8,-1778.4,-5650.2,-672.3,-1209.3,-1021.8,-421.5,-358.5,-670.5,-16.2,-5.1,-1107.3,-631.2,-7.5,-356.7,-2382.0,-649.2,0,3156,0,169,0,
1.7567,-307.2,-219.9,-234.9,-273.0,196.8,-344.7,-733.2,-975.0,-2371.2,-5650.2,-675.3,-1212.9,-1020.9,-442.8,-352.5,-680.7,-16.5,-5.1,-1110.6,-633.9,-7.5,-358.5,-2390.7,-651.6,0,3162,0,170,0,
1.7600,-301.5,-214.5,-239.4,-280.5,173.1,-376.2,-747.0,-983.4,-2593.5,-5650.8,-684.9,-1224.3,-1020.0,-414.9,-333.6,-696.0,-16.5,-5.1,-1115.1,-644.7,-7.2,-368.1,-2394.3,-660.6,0,3168,0,171,0,
1.7633,-308.1,-228.0,-254.1,-285.0,164.1,-375.0,-739.5,-986.7,-2519.4,-5651.4,-683.1,-1220.7,-1023.9,-423.3,-351.0,-688.2,-16.2,-5.1,-1118.7,-639.6,-7.5,-365.1,-2397.0,-663.6,0,3174,0,172,0,
1.7667,-313.2,-236.1,-263.1,-291.9,173.4,-368.4,-743.1,-987.3,-2148.9,-5650.5,-696.0,-1233.6,-1032.6,-435.9,-380.1,-679.5,-16.5,-5.1,-1123.8,-650.4,-7.5,-383.1,-2387.7,-655.2,0,3180,0,173,0,
1.7700,-306.0,-217.2,-246.0,-280.2,208.8,-373.5,-736.8,-979.5,-1630.2,-5650.2,-688.5,-1226.1,-1028.4,-432.3,-371.1,-685.5,-16.5,-5.1,-1116.9,-651.0,-7.5,-375.0,-2390.1,-657.9,0,3186,0,174,0,
1.7733,-308.7,-233.4,-261.9,-302.1,148.8,-376.8,-739.2,-991.8,-1852.5,-5649.9,-699.6,-1230.9,-1038.9,-438.9,-375.9,-714.0,-16.2,-5.4,-1133.4,-648.3,-7.2,-378.3,-2399.7,-670.5,0,3192,0,175,0,
1.7767,-306.6,-233.4,-259.5,-295.8,150.6,-383.1,-740.4,-987.6,-2297.1,-5650.8,-696.9,-1231.2,-1037.4,-435.0,-372.0,-701.4,-16.2,-5.4,-1127.7,-646.8,-7.2,-366.3,-2397.0,-652.5,0,3198,0,176,0,
1.7800,-317.1,-241.5,-271.2,-304.5,160.5,-341.7,-733.5,-988.8,-2667.6,-5650.8,-714.0,-1245.0,-1058.1,-449.4,-360.9,-697.2,-16.5,-5.1,-1146.6,-650.1,-7.5,-396.0,-2412.9,-708.6,0,3204,0,177,0,
1.7833,-317.1,-232.5,-256.8,-302.1,150.3,-398.1,-740.1,-995.1,-2667.6,-5650.8,-699.9,-1235.1,-1032.6,-448.8,-370.2,-693.9,-15.9,-5.1,-1136.1,-647.1,-7.5,-374.4,-2407.2,-639.6,0,3210,0,178,0,
1.7867,-313.2,-237.3,-258.0,-301.2,156.3,-386.4,-737.7,-989.7,-2074.8,-5650.2,-697.5,-1240.2,-1035.9,-440.7,-355.8,-702.9,-16.5,-5.1,-1131.6,-657.3,-7.5,-370.5,-2400.0,-662.4,0,3216,0,179,0,
1.7900,-312.3,-237.6,-259.2,-300.0,160.8,-386.7,-736.8,-987.6,-1852.5,-5650.5,-694.8,-1233.9,-1030.8,-429.9,-354.9,-712.5,-16.5,-5.1,-1136.1,-646.2,-7.5,-362.4,-2405.1,-644.4,0,3222,0,180,0,
1.7933,-316.5,-240.0,-254.7,-288.9,165.6,-380.1,-726.9,-983.4,-1704.3,-5650.8,-681.3,-1223.1,-1024.5,-437.4,-373.8,-692.1,-16.5,-5.1,-1129.8,-642.9,-7.5,-358.2,-2391.0,-664.2,0,3228,0,181,0,
1.7967,-315.3,-231.6,-242.4,-272.4,214.8,-334.5,-713.7,-974.1,-2371.2,-5650.5,-683.7,-1224.6,-1020.0,-432.6,-366.9,-696.3,-16.8,-5.4,-1127.4,-657.3,-7.5,-363.6,-2391.9,-657.9,0,3234,0,182,0,
1.8000,-308.4,-230.4,-242.1,-283.5,159.9,-374.4,-715.8,-981.3,-2593.5,-5650.2,-676.2,-1223.4,-1022.7,-429.3,-362.1,-684.6,-16.2,-4.8,-1124.4,-631.5,-7.5,-350.4,-2381.7,-683.4,0,3240,0,183,0,
1.8033,-312.3,-234.6,-251.1,-292.5,148.8,-362.4,-717.6,-982.8,-2667.6,-5650.2,-692.4,-1227.9,-1032.3,-434.4,-333.3,-686.1,-16.5,-5.1,-1137.9,-650.1,-7.2,-360.6,-2389.5,-685.2,0,3246,0,184,0,
1.8067,-318.6,-243.3,-258.6,-297.9,152.1,-373.5,-728.1,-994.2,-2148.9,-5650.8,-697.8,-1234.5,-1046.1,-448.5,-323.1,-693.9,-16.5,-5.1,-1144.2,-654.9,-7.5,-371.4,-2408.4,-629.4,0,3252,0,185,0,
1.8100,-321.0,-235.8,-251.4,-289.5,169.5,-385.8,-717.9,-986.4,-1778.4,-5650.8,-678.9,-1215.9,-1019.4,-443.7,-365.7,-680.1,-16.5,-5.1,-1131.3,-637.5,-7.2,-346.2,-2381.1,-649.8,0,3258,0,186,0,
1.8133,-314.1,-216.3,-225.0,-260.1,245.1,-310.8,-693.3,-957.3,-1852.5,-5650.2,-669.0,-1205.4,-1004.7,-432.0,-384.3,-667.2,-16.2,-5.4,-1110.6,-625.8,-7.2,-346.2,-2352.6,-657.3,0,3264,0,187,0,
1.8167,-321.6,-221.1,-235.8,-281.4,152.7,-370.8,-715.2,-975.6,-2297.1,-5650.5,-664.5,-1203.6,-1002.9,-440.1,-377.7,-677.4,-16.5,-5.1,-1107.0,-626.1,-7.5,-312.3,-2361.9,-618.6,0,3270,0,188,0,
1.8200,-324.9,-220.2,-238.8,-278.4,167.4,-312.9,-700.8,-979.5,-2593.5,-5650.5,-665.4,-1213.2,-1031.1,-452.4,-374.4,-669.6,-16.2,-5.1,-1122.6,-634.8,-7.5,-343.2,-2367.0,-691.5,0,3276,0,189,0,
1.8233,-324.0,-231.3,-237.3,-279.3,173.1,-375.6,-714.3,-983.1,-2667.6,-5651.1,-673.2,-1211.1,-1010.7,-435.3,-355.5,-663.3,-16.8,-5.1,-1120.2,-634.2,-7.2,-334.8,-2359.2,-587.7,0,3282,0,190,0,
1.8267,-318.0,-234.0,-249.6,-288.9,133.2,-381.0,-718.2,-988.2,-2148.9,-5650.2,-676.5,-1215.9,-1029.9,-429.6,-338.4,-661.5,-16.5,-4.8,-1122.9,-627.9,-7.8,-340.8,-2374.8,-654.9,0,3288,0,191,0,
1.8300,-317.1,-225.0,-245.4,-286.5,167.4,-356.1,-717.6,-987.6,-1704.3,-5650.5,-683.1,-1227.9,-1009.2,-430.2,-347.4,-676.5,-16.5,-5.1,-1130.1,-653.1,-7.2,-354.3,-2383.5,-655.8,0,3294,0,192,0,
1.8333,-315.3,-218.7,-223.8,-267.9,180.6,-367.5,-710.7,-983.4,-1852.5,-5650.8,-659.1,-1201.8,-996.6,-420.6,-359.1,-666.3,-16.2,-5.4,-1115.1,-615.9,-7.5,-328.8,-2363.4,-651.3,0,3300,0,193,0,
1.8367,-317.7,-221.7,-231.6,-267.6,186.3,-325.2,-710.1,-975.3,-2371.2,-5651.4,-662.4,-1204.5,-1005.3,-422.7,-357.3,-670.8,-16.8,-5.1,-1114.2,-627.3,-7.2,-330.6,-2372.7,-659.1,0,3306,0,194,0,
1.8400,-322.5,-230.4,-244.8,-286.5,155.1,-369.3,-717.0,-993.6,-2741.7,-5650.2,-679.5,-1217.4,-1017.9,-426.3,-353.1,-676.5,-16.5,-4.8,-1123.8,-645.3,-7.5,-332.1,-2373.9,-667.5,0,3312,0,195,0,
1.8433,-317.7,-223.8,-243.3,-293.4,152.1,-369.6,-723.0,-990.6,-2519.4,-5649.9,-684.0,-1232.1,-1022.4,-422.1,-345.3,-686.7,-16.5,-5.1,-1137.3,-668.1,-7.2,-351.0,-2373.9,-645.6,0,3318,0,196,0,
1.8467,-315.9,-226.5,-243.0,-288.6,147.9,-378.0,-724.8,-987.3,-2148.9,-5650.2,-683.4,-1223.7,-1014.3,-419.1,-342.0,-690.6,-16.2,-5.1,-1133.7,-652.2,-7.5,-334.2,-2377.2,-642.3,0,3324,0,197,0,
1.8500,-318.3,-220.8,-239.1,-281.1,159.3,-362.4,-720.6,-984.3,-1778.4,-5650.8,-684.6,-1216.8,-1010.4,-425.4,-377.1,-681.9,-16.5,-5.1,-1142.4,-645.0,-7.5,-341.1,-2368.2,-649.8,0,3330,0,198,0,
1.8533,-315.6,-222.9,-246.3,-291.9,165.3,-368.4,-724.2,-982.8,-1852.5,-5650.5,-687.3,-1229.1,-1016.4,-416.4,-357.9,-684.9,-16.2,-5.4,-1147.5,-654.6,-7.5,-350.4,-2372.7,-691.5,0,3336,0,199,0,
1.8567,-318.6,-241.8,-268.5,-306.0,150.6,-366.6,-741.9,-993.0,-2297.1,-5650.2,-705.3,-1240.8,-1033.2,-441.3,-348.3,-700.2,-16.5,-5.1,-1154.4,-669.0,-7.5,-365.4,-2406.6,-678.6,0,3342,0,200,0,
1.8600,-320.1,-233.7,-265.8,-303.0,126.0,-370.8,-734.1,-990.6,-2741.7,-5649.9,-696.3,-1242.0,-1031.1,-440.1,-382.5,-686.1,-16.2,-5.1,-1153.2,-668.4,-7.8,-356.7,-2391.0,-662.7,0,3348,0,201,0,
1.8633,-308.1,-227.4,-246.6,-276.6,206.1,-369.0,-719.7,-978.9,-2741.7,-5651.4,-686.4,-1222.5,-1027.2,-425.1,-373.5,-672.9,-16.8,-5.1,-1144.2,-653.7,-7.5,-349.2,-2387.4,-655.8,0,3354,0,202,0,
1.8667,-315.3,-228.3,-255.0,-295.2,175.2,-364.5,-720.3,-984.0,-2223.0,-5650.8,-706.8,-1242.0,-1039.2,-434.7,-377.4,-673.8,-16.2,-5.1,-1163.4,-682.8,-7.8,-372.3,-2380.5,-690.9,0,3360,0,203,0,
1.8700,-313.2,-236.4,-264.0,-309.3,112.2,-377.1,-719.4,-993.9,-1852.5,-5650.2,-706.2,-1235.1,-1038.6,-432.3,-368.7,-687.9,-16.8,-4.8,-1164.0,-672.3,-7.5,-367.8,-2386.8,-696.9,0,3366,0,204,0,
1.8733,-316.8,-235.8,-265.8,-306.3,150.6,-385.8,-732.9,-993.9,-1852.5,-5649.9,-708.3,-1241.7,-1034.4,-436.5,-373.8,-704.7,-16.2,-4.8,-1164.6,-677.7,-7.5,-367.8,-2394.3,-646.2,0,3372,0,205,0,
1.8767,-318.6,-242.1,-267.0,-309.6,124.8,-410.4,-732.6,-1001.1,-2297.1,-5650.5,-696.9,-1237.5,-1042.8,-438.6,-370.8,-705.6,-16.5,-5.4,-1153.5,-669.3,-7.2,-360.0,-2396.1,-653.7,0,3378,0,206,0,
1.8800,-315.6,-234.9,-268.8,-307.8,130.8,-381.9,-732.9,-996.6,-2667.6,-5650.8,-696.0,-1243.2,-1041.0,-441.9,-371.7,-706.8,-16.2,-5.4,-1148.4,-681.6,-7.2,-366.3,-2406.3,-677.7,0,3384,0,207,0,
1.8833,-326.7,-250.2,-280.2,-311.7,126.6,-373.5,-727.2,-1000.5,-2593.5,-5650.5,-708.3,-1248.3,-1060.2,-449.4,-371.7,-706.5,-16.5,-5.1,-1165.2,-670.5,-7.5,-377.7,-2393.1,-698.4,0,3390,0,208,0,
1.8867,-322.2,-244.8,-276.0,-317.1,125.4,-402.9,-733.5,-1002.6,-2148.9,-5649.9,-711.3,-1257.6,-1062.0,-449.1,-338.4,-709.8,-16.2,-5.1,-1170.9,-683.7,-7.5,-380.7,-2404.8,-675.6,0,3396,0,209,0,
1.8900,-321.9,-246.3,-262.8,-298.2,156.0,-369.3,-720.3,-994.5,-1852.5,-5650.2,-710.1,-1241.4,-1042.2,-444.6,-381.6,-702.3,-16.5,-5.1,-1164.6,-668.7,-7.5,-376.2,-2397.6,-693.3,0,3402,0,210,0,
1.8933,-322.2,-228.3,-247.5,-282.3,161.7,-349.5,-708.0,-974.4,-1778.4,-5650.2,-683.1,-1221.3,-1029.3,-441.3,-388.2,-680.4,-16.5,-5.1,-1127.7,-648.6,-7.5,-334.8,-2376.3,-640.2,0,3408,0,211,0,
1.8967,-319.5,-218.7,-248.1,-287.7,156.6,-387.3,-714.3,-979.5,-2371.2,-5650.5,-680.1,-1223.4,-1025.7,-431.7,-355.5,-679.5,-16.2,-5.1,-1143.3,-655.2,-7.5,-349.5,-2371.5,-639.0,0,3414,0,212,0,
1.9000,-324.3,-219.6,-246.0,-286.5,160.2,-354.0,-711.3,-981.9,-2741.7,-5649.6,-681.3,-1232.7,-1035.6,-469.8,-366.9,-675.0,-16.5,-4.8,-1144.5,-657.3,-7.5,-355.5,-2374.2,-684.6,0,3420,0,213,0,
1.9033,-324.6,-234.3,-249.6,-271.2,234.6,-322.8,-705.6,-975.6,-2593.5,-5650.5,-687.0,-1229.7,-1041.9,-438.9,-379.8,-678.9,-16.5,-5.1,-1149.0,-658.5,-7.5,-374.1,-2370.3,-708.6,0,3426,0,214,0,
1.9067,-317.7,-222.9,-234.3,-273.0,154.2,-371.1,-719.1,-977.7,-2223.0,-5650.5,-672.0,-1215.0,-1020.6,-437.7,-378.9,-686.1,-16.5,-5.1,-1132.5,-653.7,-7.2,-336.9,-2369.1,-608.7,0,3432,0,215,0,
1.9100,-317.7,-225.3,-234.3,-275.1,149.1,-379.5,-715.2,-984.6,-1852.5,-5651.4,-671.4,-1218.0,-1021.2,-429.6,-369.6,-681.6,-16.2,-5.4,-1132.8,-654.3,-7.8,-339.9,-2370.0,-622.2,0,3438,0,216,0,
1.9133,-314.4,-222.6,-237.3,-278.4,148.2,-379.8,-722.4,-989.1,-1852.5,-5649.9,-681.3,-1228.8,-1029.3,-427.2,-345.6,-695.4,-16.5,-5.1,-1134.0,-653.7,-7.2,-360.3,-2384.1,-649.5,0,3444,0,217,0,
1.9167,-315.0,-225.9,-239.1,-271.5,164.7,-370.5,-720.9,-990.0,-2148.9,-5650.2,-676.2,-1225.2,-1044.0,-420.9,-343.2,-707.7,-16.5,-4.8,-1142.4,-657.3,-7.5,-367.8,-2395.5,-652.8,0,3450,0,218,0,
1.9200,-323.4,-215.4,-224.4,-251.7,220.5,-340.8,-708.0,-976.8,-2593.5,-5651.1,-662.7,-1206.0,-1024.5,-438.0,-385.8,-687.6,-16.2,-4.8,-1126.5,-633.3,-7.5,-343.2,-2374.8,-672.6,0,3456,0,219,0,
1.9233,-328.8,-223.2,-231.6,-270.0,144.6,-327.6,-709.2,-980.7,-2667.6,-5651.1,-663.9,-1218.0,-1027.5,-436.2,-387.3,-687.6,-16.2,-5.1,-1127.1,-646.2,-7.5,-340.8,-2373.0,-643.2,0,3462,0,220,0,
1.9267,-318.3,-219.6,-228.6,-261.6,156.0,-362.1,-715.5,-982.2,-2223.0,-5650.2,-660.0,-1209.9,-1018.8,-433.5,-377.1,-675.9,-16.2,-5.1,-1116.0,-638.7,-7.8,-340.8,-2377.2,-635.7,0,3468,0,221,0,
1.9300,-324.6,-225.0,-237.9,-276.3,151.2,-397.2,-726.0,-990.6,-1926.6,-5650.5,-684.3,-1228.2,-1032.0,-437.7,-355.2,-690.6,-16.2,-5.4,-1143.0,-650.7,-7.5,-358.2,-2386.5,-643.5,0,3474,0,222,0,
1.9333,-323.7,-210.9,-215.4,-259.5,166.5,-367.2,-713.1,-977.1,-1778.4,-5650.2,-665.1,-1209.0,-1040.1,-442.5,-415.5,-671.7,-16.2,-5.1,-1117.5,-632.4,-7.2,-342.6,-2370.3,-655.5,0,3480,0,223,0,
1.9367,-315.6,-203.4,-220.2,-258.3,179.1,-366.0,-718.8,-969.0,-2297.1,-5651.1,-658.2,-1209.0,-1030.8,-430.5,-403.8,-694.8,-16.5,-5.1,-1111.8,-646.8,-7.5,-342.0,-2378.1,-616.2,0,3486,0,224,0,
1.9400,-323.1,-227.4,-234.0,-263.4,201.6,-359.7,-725.1,-971.4,-2519.4,-5650.5,-674.4,-1218.0,-1032.9,-435.9,-382.2,-699.6,-16.5,-5.1,-1139.1,-657.0,-7.5,-351.6,-2378.1,-662.4,0,3492,0,225,0,
1.9433,-326.1,-218.4,-235.2,-279.6,139.5,-379.8,-729.6,-982.8,-2593.5,-5650.2,-687.6,-1230.6,-1026.0,-443.1,-387.0,-703.5,-16.5,-5.1,-1154.1,-658.2,-7.5,-361.8,-2391.6,-647.1,0,3498,0,226,0,
1.9467,-326.4,-229.8,-253.8,-278.4,162.6,-353.4,-723.6,-980.7,-2074.8,-5650.8,-690.0,-1224.6,-1030.8,-447.3,-399.6,-707.4,-16.5,-4.8,-1147.2,-661.5,-6.9,-354.0,-2391.0,-695.7,0,3504,0,227,0,
1.9500,-330.3,-230.4,-249.0,-276.3,187.5,-364.2,-728.4,-980.4,-1852.5,-5650.8,-696.3,-1236.6,-1044.9,-460.8,-394.2,-707.1,-16.2,-4.8,-1153.8,-672.6,-7.5,-371.7,-2391.3,-657.0,0,3510,0,228,0,
1.9533,-329.7,-240.9,-260.4,-298.2,98.1,-408.0,-741.9,-995.7,-1926.6,-5650.5,-691.8,-1233.0,-1035.0,-464.4,-384.3,-706.2,-16.5,-5.4,-1158.6,-665.7,-7.2,-355.2,-2396.1,-650.4,0,3516,0,229,0,
1.9567,-334.2,-246.3,-264.9,-297.9,138.9,-386.4,-737.7,-994.8,-2371.2,-5650.2,-700.8,-1245.3,-1057.8,-451.2,-398.4,-707.4,-16.5,-4.8,-1171.8,-685.2,-7.5,-378.0,-2388.3,-683.1,0,3522,0,230,0,
1.9600,-328.2,-247.2,-267.3,-298.2,135.0,-389.4,-732.0,-997.2,-2741.7,-5650.5,-705.6,-1245.9,-1050.9,-464.7,-396.6,-709.5,-16.5,-5.4,-1175.7,-697.5,-7.5,-375.0,-2385.6,-709.5,0,3528,0,231,0,
1.9633,-333.0,-250.2,-271.8,-306.6,125.4,-372.9,-730.5,-998.4,-2667.6,-5651.7,-708.9,-1245.3,-1050.9,-457.5,-397.2,-711.0,-16.2,-4.8,-1181.4,-673.2,-7.8,-382.2,-2395.8,-685.8,0,3534,0,232,0,
1.9667,-331.5,-243.9,-266.4,-300.9,143.1,-363.3,-724.2,-993.3,-2148.9,-5651.4,-704.4,-1240.5,-1050.6,-458.4,-393.0,-705.9,-16.8,-5.1,-1178.1,-671.4,-7.5,-378.3,-2394.0,-676.2,0,3540,0,233,0,
1.9700,-330.3,-244.2,-270.0,-301.2,147.9,-395.1,-723.9,-995.1,-1778.4,-5650.5,-702.0,-1245.0,-1052.7,-452.1,-380.1,-699.0,-16.2,-4.8,-1170.9,-681.0,-7.5,-374.1,-2387.7,-660.9,0,3546,0,234,0,
1.9733,-329.7,-248.4,-277.8,-309.6,133.8,-351.9,-715.5,-993.9,-1926.6,-5649.3,-720.9,-1252.2,-1050.6,-451.2,-379.2,-696.0,-16.5,-5.1,-1181.7,-684.3,-7.5,-376.5,-2385.3,-679.5,0,3552,0,235,0,
1.9767,-322.2,-247.5,-274.8,-312.9,120.3,-407.7,-723.3,-1003.5,-2297.1,-5650.5,-704.7,-1243.2,-1050.3,-442.5,-368.1,-690.6,-16.2,-5.4,-1177.2,-689.1,-7.5,-359.1,-2381.4,-630.0,0,3558,0,236,0,
1.9800,-320.1,-236.7,-269.1,-309.9,127.8,-396.0,-717.6,-1000.2,-2593.5,-5650.5,-707.1,-1235.1,-1053.6,-462.3,-376.5,-686.4,-16.2,-5.4,-1181.4,-675.3,-7.5,-365.7,-2376.6,-654.9,0,3564,0,237,0,
1.9833,-316.5,-230.7,-261.3,-296.7,157.8,-379.2,-715.2,-993.9,-2445.3,-5651.1,-692.1,-1230.6,-1053.6,-436.2,-383.7,-686.1,-16.2,-4.8,-1168.5,-678.9,-7.5,-351.9,-2374.5,-658.5,0,3570,0,238,0,
1.9867,-323.4,-234.6,-263.7,-305.7,136.2,-373.8,-711.3,-992.7,-2223.0,-5649.9,-693.6,-1233.3,-1026.0,-435.0,-374.1,-687.0,-16.2,-5.4,-1176.3,-677.7,-7.2,-358.5,-2376.9,-660.3,0,3576,0,239,0,
1.9900,-323.7,-235.8,-252.3,-297.3,156.9,-365.7,-708.9,-988.8,-1926.6,-5649.9,-685.8,-1228.8,-1022.4,-446.7,-374.4,-686.7,-16.2,-4.5,-1160.7,-670.2,-7.2,-357.6,-2379.6,-693.3,0,3582,0,240,0,
1.9933,-318.6,-222.9,-242.4,-292.5,146.7,-344.7,-700.8,-983.4,-1926.6,-5650.2,-692.7,-1231.2,-1032.3,-446.1,-377.7,-682.2,-16.5,-5.4,-1176.0,-678.3,-7.5,-366.0,-2373.3,-678.6,0,3588,0,241,0,
1.9967,-314.4,-220.8,-251.4,-289.5,150.6,-387.6,-722.4,-985.2,-2371.2,-5651.4,-684.3,-1214.1,-1022.4,-427.8,-373.2,-681.9,-16.5,-4.8,-1166.7,-653.7,-7.5,-349.5,-2378.7,-632.4,0,3594,0,242,0,
2.0000,-315.0,-225.9,-261.6,-294.3,154.2,-336.0,-715.2,-973.2,-2741.7,-5650.8,-710.1,-1227.0,-1031.4,-427.8,-350.7,-688.8,-16.8,-5.4,-1175.7,-675.3,-7.2,-365.4,-2386.5,-707.1,0,3600,0,243,0,
2.0033,-319.5,-231.3,-250.5,-289.5,145.5,-358.2,-714.3,-974.4,-2667.6,-5650.5,-687.6,-1217.4,-1020.9,-443.7,-365.1,-688.8,-15.9,-4.8,-1170.3,-658.8,-7.5,-356.1,-2379.0,-642.6,0,3606,0,244,0,
2.0067,-311.1,-216.3,-240.0,-291.3,151.5,-378.9,-710.4,-971.7,-2223.0,-5650.5,-676.2,-1217.1,-1023.9,-437.7,-380.4,-678.9,-16.2,-5.1,-1165.8,-658.2,-7.2,-342.6,-2369.7,-629.7,0,3612,0,245,0,
2.0100,-313.8,-228.3,-255.0,-302.1,124.5,-380.4,-714.3,-973.2,-1778.4,-5651.4,-693.9,-1230.3,-1030.2,-436.8,-366.3,-682.2,-16.5,-5.1,-1180.5,-668.7,-7.8,-354.0,-2370.6,-645.0,0,3618,0,246,0,
2.0133,-315.0,-234.3,-266.1,-309.0,129.3,-372.3,-711.9,-978.3,-1778.4,-5651.4,-704.1,-1243.5,-1032.3,-438.0,-367.2,-683.4,-16.2,-4.8,-1186.8,-687.6,-7.2,-368.7,-2381.1,-687.0,0,3624,0,247,0,
2.0167,-320.4,-225.6,-246.6,-289.5,161.4,-329.4,-706.2,-970.8,-2297.1,-5649.6,-679.5,-1216.8,-1032.0,-455.4,-371.1,-684.9,-16.5,-5.1,-1164.0,-662.1,-7.8,-366.9,-2374.2,-683.1,0,3630,0,248,0,
2.0200,-311.1,-215.7,-245.7,-293.1,160.5,-378.3,-721.5,-975.9,-2667.6,-5650.2,-676.5,-1215.6,-1020.9,-429.3,-365.4,-692.1,-16.2,-5.1,-1160.1,-675.9,-7.5,-353.7,-2382.9,-624.6,0,3636,0,249,0,
2.0233,-315.0,-235.5,-251.4,-300.9,145.8,-401.1,-731.1,-981.6,-2741.7,-5650.5,-684.3,-1221.6,-1026.3,-435.3,-349.5,-695.4,-16.5,-5.4,-1162.8,-669.0,-7.2,-352.2,-2382.6,-652.8,0,3642,0,250,0,
2.0267,-318.9,-235.2,-255.0,-301.2,146.4,-364.5,-726.3,-977.7,-2148.9,-5651.1,-699.9,-1232.1,-1044.0,-443.7,-358.5,-699.9,-16.2,-4.8,-1192.2,-674.1,-7.8,-378.0,-2393.1,-680.4,0,3648,0,251,0,
2.0300,-310.8,-220.5,-244.5,-289.8,174.6,-360.6,-717.3,-974.1,-1852.5,-5650.5,-685.5,-1223.1,-1024.2,-434.4,-355.2,-680.7,-16.5,-5.1,-1169.1,-677.1,-7.5,-365.4,-2388.9,-673.8,0,3654,0,252,0,
2.0333,-308.7,-215.7,-234.6,-291.6,111.3,-351.0,-701.7,-973.2,-1778.4,-5651.1,-671.7,-1205.7,-1027.8,-432.6,-374.4,-668.1,-16.2,-5.4,-1165.2,-647.1,-7.5,-351.3,-2366.7,-668.4,0,3660,0,253,0,
2.0367,-308.4,-209.7,-227.7,-270.0,177.6,-360.6,-715.2,-966.6,-2297.1,-5650.8,-677.1,-1212.3,-1024.8,-439.5,-372.3,-665.4,-16.2,-5.4,-1164.0,-669.9,-7.2,-348.9,-2371.8,-643.8,0,3666,0,254,0,
2.0400,-315.6,-218.7,-237.0,-281.1,143.4,-375.9,-711.6,-968.1,-2667.6,-5651.4,-676.8,-1214.7,-1023.3,-438.9,-357.9,-674.7,-16.5,-4.8,-1167.3,-658.8,-7.2,-345.0,-2367.3,-669.6,0,3672,0,255,0,
2.0433,-309.3,-215.1,-229.2,-270.6,192.6,-334.5,-715.2,-960.9,-2667.6,-5650.8,-675.6,-1199.7,-1018.5,-434.1,-377.7,-697.5,-16.5,-5.1,-1147.8,-656.7,-7.2,-346.5,-2385.6,-685.5,0,3678,0,0,0,
2.0467,-315.9,-218.7,-226.2,-268.8,180.6,-328.8,-711.9,-957.3,-2223.0,-5650.2,-677.1,-1205.1,-1019.4,-442.5,-381.9,-694.8,-16.5,-5.1,-1177.8,-665.7,-7.5,-351.3,-2385.0,-693.9,0,3684,0,1,0,
2.0500,-318.6,-216.3,-230.4,-270.0,174.6,-341.7,-718.2,-964.2,-1778.4,-5650.8,-672.0,-1215.6,-1031.7,-450.9,-380.1,-689.7,-16.2,-5.4,-1181.1,-671.4,-7.2,-361.2,-2387.7,-690.3,0,3690,0,2,0,
2.0533,-321.0,-227.4,-242.7,-280.5,168.0,-369.6,-720.6,-975.0,-1852.5,-5650.8,-682.8,-1212.6,-1032.0,-459.9,-381.3,-693.6,-16.2,-4.8,-1175.7,-665.4,-7.8,-354.9,-2382.9,-663.9,0,3696,0,3,0,
2.0567,-315.9,-222.3,-240.3,-286.2,139.2,-366.9,-717.3,-973.5,-2223.0,-5650.8,-681.9,-1221.6,-1036.8,-466.8,-371.7,-703.8,-16.5,-5.1,-1179.0,-671.4,-7.5,-347.1,-2384.7,-671.1,0,3702,0,4,0,
2.0600,-317.4,-233.4,-240.3,-287.7,144.0,-374.1,-719.1,-977.4,-2815.8,-5650.2,-682.5,-1220.7,-1025.7,-474.6,-376.2,-699.6,-16.5,-4.8,-1173.3,-661.8,-7.8,-357.9,-2381.7,-665.7,0,3708,0,5,0,
2.0633,-316.5,-234.0,-242.1,-285.6,157.8,-360.6,-708.9,-975.9,-2593.5,-5650.2,-684.9,-1218.3,-1038.0,-445.2,-370.8,-693.0,-16.5,-5.1,-1169.7,-686.1,-7.2,-360.9,-2378.7,-719.1,0,3714,0,6,0,
2.0667,-320.7,-239.1,-255.6,-288.3,160.8,-349.2,-715.5,-984.9,-2148.9,-5650.2,-700.8,-1230.9,-1042.5,-456.3,-366.6,-697.2,-16.2,-5.1,-1185.9,-684.9,-7.5,-381.6,-2385.9,-698.4,0,3720,0,7,0,
2.0700,-315.0,-229.8,-254.7,-294.9,140.7,-384.9,-724.2,-993.3,-1926.6,-5651.1,-706.5,-1232.1,-1064.1,-453.6,-381.6,-685.8,-16.5,-5.1,-1186.2,-673.2,-7.2,-369.0,-2398.8,-675.6,0,3726,0,8,0,
2.0733,-317.7,-228.6,-245.1,-285.6,174.9,-349.8,-705.9,-984.0,-1926.6,-5650.8,-693.0,-1228.2,-1038.3,-454.5,-395.4,-671.7,-16.8,-4.8,-1178.7,-682.2,-7.5,-367.5,-2391.6,-732.0,0,3732,0,9,0,
2.0767,-328.2,-234.3,-237.9,-289.8,132.0,-328.5,-706.2,-982.5,-2223.0,-5650.8,-680.4,-1221.3,-1025.7,-448.2,-378.0,-684.3,-16.5,-5.4,-1171.2,-677.7,-7.5,-358.2,-2389.5,-702.9,0,3738,0,10,0,
2.0800,-317.7,-222.0,-234.9,-286.2,165.6,-396.0,-724.2,-984.6,-2519.4,-5651.1,-685.8,-1215.0,-1048.5,-440.1,-372.6,-696.9,-16.5,-5.1,-1180.5,-672.3,-7.5,-354.3,-2391.9,-666.6,0,3744,0,11,0,
2.0833,-322.2,-224.1,-253.5,-293.1,193.2,-369.3,-714.6,-983.4,-2593.5,-5651.1,-690.6,-1233.6,-1027.8,-471.6,-373.2,-685.2,-16.2,-5.1,-1186.2,-701.1,-7.5,-366.6,-2400.3,-687.3,0,3750,0,12,0,
2.0867,-317.7,-229.8,-257.4,-302.1,92.4,-381.6,-713.7,-984.6,-2074.8,-5650.8,-685.5,-1219.8,-1013.7,-453.6,-382.2,-675.3,-16.8,-5.1,-1167.3,-671.4,-7.8,-345.3,-2379.3,-676.8,0,3756,0,13,0,
